timestamp_lsl,timestamp_iso,TP9,AF7,AF8,TP10
1781532842.333063,2026-06-15T21:14:04.265,8.7890625,-626.46484375,-374.0234375,62.98828125
1781532842.336946,2026-06-15T21:14:04.265,23.92578125,-672.36328125,-360.3515625,160.15625
1781532842.340830,2026-06-15T21:14:04.265,-3.90625,-546.38671875,-371.09375,13.18359375
1781532842.344713,2026-06-15T21:14:04.265,-16.11328125,-497.55859375,-393.06640625,-127.9296875
1781532842.348597,2026-06-15T21:14:04.265,-16.6015625,-765.13671875,-477.5390625,-130.37109375
1781532842.352480,2026-06-15T21:14:04.265,14.16015625,-859.86328125,-430.17578125,45.41015625
1781532842.356363,2026-06-15T21:14:04.265,28.3203125,-685.05859375,-354.98046875,164.0625
1781532842.360247,2026-06-15T21:14:04.265,-3.41796875,-709.9609375,-410.64453125,40.52734375
1781532842.364130,2026-06-15T21:14:04.265,-27.34375,-867.1875,-467.28515625,-118.1640625
1781532842.368013,2026-06-15T21:14:04.265,-38.0859375,-699.70703125,-403.80859375,-154.78515625
1781532842.371897,2026-06-15T21:14:04.265,-2.44140625,-469.23828125,-333.0078125,6.8359375
1781532842.375780,2026-06-15T21:14:04.265,21.97265625,-558.10546875,-374.51171875,153.3203125
1781532842.379949,2026-06-15T21:14:04.265,1.46484375,-833.984375,-458.0078125,76.171875
1781532842.383833,2026-06-15T21:14:04.265,-16.6015625,-737.3046875,-385.25390625,-90.8203125
1781532842.387716,2026-06-15T21:14:04.265,-42.96875,-507.8125,-364.2578125,-178.7109375
1781532842.391600,2026-06-15T21:14:04.265,-41.50390625,-642.578125,-427.24609375,-49.8046875
1781532842.395483,2026-06-15T21:14:04.265,-18.5546875,-759.765625,-439.94140625,104.98046875
1781532842.399367,2026-06-15T21:14:04.265,-23.92578125,-695.80078125,-405.76171875,43.45703125
1781532842.403250,2026-06-15T21:14:04.265,-50.78125,-800.29296875,-408.69140625,-129.39453125
1781532842.407133,2026-06-15T21:14:04.265,-94.7265625,-952.63671875,-589.84375,-224.12109375
1781532842.411017,2026-06-15T21:14:04.265,-93.26171875,-976.07421875,-628.41796875,-102.5390625
1781532842.414900,2026-06-15T21:14:04.265,-40.0390625,-518.06640625,-273.4375,71.77734375
1781532842.418784,2026-06-15T21:14:04.265,-46.38671875,-126.46484375,-248.53515625,15.13671875
1781532842.422667,2026-06-15T21:14:04.265,-97.16796875,-557.12890625,-394.04296875,-175.29296875
1781532842.426812,2026-06-15T21:14:04.265,-140.625,-711.9140625,-376.953125,-282.71484375
1781532842.430695,2026-06-15T21:14:04.265,-151.3671875,-409.66796875,-324.21875,-199.21875
1781532842.434579,2026-06-15T21:14:04.265,-111.81640625,-341.30859375,-315.4296875,-13.18359375
1781532842.438462,2026-06-15T21:14:04.265,-120.1171875,-456.0546875,-326.171875,-18.06640625
1781532842.442346,2026-06-15T21:14:04.265,-175.78125,-558.10546875,-373.046875,-220.703125
1781532842.446229,2026-06-15T21:14:04.265,-224.609375,-781.73828125,-502.9296875,-362.79296875
1781532842.450113,2026-06-15T21:14:04.265,-225.5859375,-917.96875,-467.7734375,-304.6875
1781532842.453996,2026-06-15T21:14:04.265,-181.15234375,-968.75,-510.25390625,-96.6796875
1781532842.457880,2026-06-15T21:14:04.265,-152.83203125,-769.04296875,-433.59375,-30.2734375
1781532842.461763,2026-06-15T21:14:04.265,-167.48046875,-300.29296875,-257.8125,-189.94140625
1781532842.465647,2026-06-15T21:14:04.265,-179.6875,-506.34765625,-402.34375,-294.43359375
1781532842.469530,2026-06-15T21:14:04.265,-156.25,-796.875,-441.89453125,-241.69921875
1781532842.473653,2026-06-15T21:14:04.265,-120.1171875,-506.8359375,-312.5,-65.4296875
1781532842.477537,2026-06-15T21:14:04.265,-91.30859375,-177.24609375,-236.81640625,21.97265625
1781532842.481421,2026-06-15T21:14:04.265,-104.4921875,-485.83984375,-397.4609375,-116.69921875
1781532842.485304,2026-06-15T21:14:04.265,-123.53515625,-783.203125,-483.3984375,-253.41796875
1781532842.489188,2026-06-15T21:14:04.265,-124.0234375,-647.94921875,-405.2734375,-229.4921875
1781532842.493071,2026-06-15T21:14:04.265,-77.1484375,-635.7421875,-374.0234375,-36.1328125
1781532842.496955,2026-06-15T21:14:04.265,-24.90234375,-750.48828125,-449.70703125,98.6328125
1781532842.500838,2026-06-15T21:14:04.265,-30.76171875,-917.48046875,-549.8046875,-4.39453125
1781532842.504722,2026-06-15T21:14:04.265,-51.26953125,-615.234375,-353.515625,-152.83203125
1781532842.508605,2026-06-15T21:14:04.265,-44.43359375,-429.19921875,-353.02734375,-154.296875
1781532842.512489,2026-06-15T21:14:04.265,11.71875,-617.67578125,-354.4921875,37.109375
1781532842.516373,2026-06-15T21:14:04.266,39.0625,-498.046875,-274.90234375,159.66796875
1781532842.520475,2026-06-15T21:14:04.266,32.71484375,-264.6484375,-275.87890625,49.31640625
1781532842.524358,2026-06-15T21:14:04.266,21.97265625,-399.4140625,-364.74609375,-84.47265625
1781532842.528242,2026-06-15T21:14:04.266,-4.8828125,-797.8515625,-484.86328125,-110.3515625
1781532842.532126,2026-06-15T21:14:04.266,31.25,-701.66015625,-365.234375,57.12890625
1781532842.536009,2026-06-15T21:14:04.266,72.75390625,-327.63671875,-287.109375,204.58984375
1781532842.539893,2026-06-15T21:14:04.266,70.3125,-618.65234375,-422.36328125,118.1640625
1781532842.543777,2026-06-15T21:14:04.266,33.69140625,-947.75390625,-537.59765625,-46.875
1781532842.547660,2026-06-15T21:14:04.266,11.71875,-930.6640625,-497.0703125,-109.86328125
1781532842.551544,2026-06-15T21:14:04.266,58.10546875,-551.26953125,-323.73046875,43.9453125
1781532842.555428,2026-06-15T21:14:04.266,101.07421875,-339.84375,-298.828125,208.49609375
1781532842.559311,2026-06-15T21:14:04.266,93.26171875,-712.40234375,-410.15625,157.71484375
1781532842.563195,2026-06-15T21:14:04.266,67.87109375,-699.21875,-349.609375,-10.7421875
1781532842.567276,2026-06-15T21:14:04.266,46.38671875,-493.1640625,-350.5859375,-97.65625
1781532842.571160,2026-06-15T21:14:04.266,75.1953125,-698.73046875,-420.41015625,44.43359375
1781532842.575043,2026-06-15T21:14:04.266,116.2109375,-675.29296875,-371.58203125,216.796875
1781532842.578927,2026-06-15T21:14:04.266,107.421875,-339.35546875,-293.45703125,172.8515625
1781532842.582811,2026-06-15T21:14:04.266,77.63671875,-383.7890625,-312.5,3.90625
1781532842.586694,2026-06-15T21:14:04.266,59.08203125,-806.640625,-546.875,-82.03125
1781532842.590578,2026-06-15T21:14:04.266,79.58984375,-1000.0,-615.234375,47.36328125
1781532842.594462,2026-06-15T21:14:04.266,123.046875,-582.51953125,-292.48046875,224.609375
1781532842.598346,2026-06-15T21:14:04.266,127.9296875,-192.3828125,-220.703125,206.54296875
1781532842.602229,2026-06-15T21:14:04.266,93.26171875,-576.171875,-409.66796875,49.31640625
1781532842.606113,2026-06-15T21:14:04.266,63.4765625,-886.71875,-499.0234375,-63.96484375
1781532842.609997,2026-06-15T21:14:04.266,63.4765625,-612.79296875,-354.98046875,3.90625
1781532842.614223,2026-06-15T21:14:04.266,103.515625,-364.74609375,-288.57421875,191.40625
1781532842.618107,2026-06-15T21:14:04.266,113.76953125,-507.32421875,-328.61328125,219.23828125
1781532842.621990,2026-06-15T21:14:04.266,85.9375,-565.91796875,-315.4296875,55.6640625
1781532842.625874,2026-06-15T21:14:04.266,64.453125,-487.79296875,-358.88671875,-67.3828125
1781532842.629758,2026-06-15T21:14:04.266,62.01171875,-708.49609375,-434.08203125,-3.41796875
1781532842.633642,2026-06-15T21:14:04.266,88.8671875,-856.4453125,-411.1328125,194.3359375
1781532842.637526,2026-06-15T21:14:04.266,106.4453125,-812.01171875,-384.765625,234.86328125
1781532842.641410,2026-06-15T21:14:04.266,94.7265625,-752.9296875,-375.0,64.453125
1781532842.645293,2026-06-15T21:14:04.266,64.94140625,-757.8125,-420.8984375,-65.91796875
1781532842.649177,2026-06-15T21:14:04.266,62.5,-894.53125,-487.3046875,-23.4375
1781532842.653061,2026-06-15T21:14:04.266,97.65625,-594.7265625,-314.453125,155.2734375
1781532842.656945,2026-06-15T21:14:04.266,97.65625,-185.546875,-231.4453125,217.28515625
1781532842.661147,2026-06-15T21:14:04.266,68.359375,-422.36328125,-352.5390625,68.359375
1781532842.665031,2026-06-15T21:14:04.266,47.36328125,-756.34765625,-440.4296875,-70.80078125
1781532842.668915,2026-06-15T21:14:04.266,52.24609375,-611.81640625,-369.62890625,-58.10546875
1781532842.672799,2026-06-15T21:14:04.266,89.35546875,-281.73828125,-245.60546875,124.51171875
1781532842.676683,2026-06-15T21:14:04.266,100.09765625,-370.1171875,-312.98828125,218.26171875
1781532842.680567,2026-06-15T21:14:04.266,72.265625,-815.4296875,-469.23828125,75.1953125
1781532842.684451,2026-06-15T21:14:04.266,55.6640625,-789.0625,-407.71484375,-68.84765625
1781532842.688335,2026-06-15T21:14:04.266,38.57421875,-701.66015625,-380.859375,-100.09765625
1781532842.692219,2026-06-15T21:14:04.266,42.96875,-919.921875,-512.6953125,63.4765625
1781532842.696103,2026-06-15T21:14:04.266,67.87109375,-854.4921875,-493.1640625,207.03125
1781532842.699987,2026-06-15T21:14:04.266,59.5703125,-421.875,-281.25,96.19140625
1781532842.703871,2026-06-15T21:14:04.266,21.97265625,-427.734375,-360.83984375,-73.73046875
1781532842.708052,2026-06-15T21:14:04.266,3.90625,-796.875,-442.87109375,-108.88671875
1781532842.711936,2026-06-15T21:14:04.266,42.48046875,-622.55859375,-330.56640625,53.7109375
1781532842.715820,2026-06-15T21:14:04.266,76.171875,-223.14453125,-232.91015625,208.0078125
1781532842.719704,2026-06-15T21:14:04.266,61.03515625,-236.81640625,-295.41015625,119.140625
1781532842.723588,2026-06-15T21:14:04.266,35.64453125,-654.296875,-455.078125,-41.015625
1781532842.727472,2026-06-15T21:14:04.266,16.6015625,-968.75,-496.58203125,-79.58984375
1781532842.731356,2026-06-15T21:14:04.266,28.80859375,-842.7734375,-422.36328125,43.45703125
1781532842.735240,2026-06-15T21:14:04.266,64.453125,-639.6484375,-318.84765625,183.59375
1781532842.739125,2026-06-15T21:14:04.266,64.94140625,-830.56640625,-517.08984375,153.80859375
1781532842.743009,2026-06-15T21:14:04.266,51.26953125,-861.81640625,-547.8515625,7.32421875
1781532842.746892,2026-06-15T21:14:04.266,23.92578125,-671.38671875,-373.046875,-104.4921875
1781532842.750777,2026-06-15T21:14:04.266,9.27734375,-776.3671875,-419.43359375,-18.5546875
1781532842.754935,2026-06-15T21:14:04.266,41.015625,-560.546875,-315.91796875,146.484375
1781532842.758819,2026-06-15T21:14:04.266,40.52734375,-249.51171875,-247.0703125,109.375
1781532842.762704,2026-06-15T21:14:04.266,17.578125,-268.5546875,-295.41015625,-62.01171875
1781532842.766588,2026-06-15T21:14:04.266,-2.44140625,-621.58203125,-431.640625,-155.76171875
1781532842.770472,2026-06-15T21:14:04.266,17.08984375,-714.35546875,-446.77734375,-55.17578125
1781532842.774356,2026-06-15T21:14:04.266,47.8515625,-597.16796875,-380.37109375,115.72265625
1781532842.778240,2026-06-15T21:14:04.266,29.78515625,-491.2109375,-295.41015625,102.5390625
1781532842.782124,2026-06-15T21:14:04.266,18.06640625,-627.9296875,-445.3125,-40.0390625
1781532842.786008,2026-06-15T21:14:04.266,-2.9296875,-961.42578125,-610.3515625,-131.8359375
1781532842.789892,2026-06-15T21:14:04.266,-12.20703125,-571.2890625,-307.12890625,-91.30859375
1781532842.793777,2026-06-15T21:14:04.266,29.296875,-227.5390625,-251.46484375,93.75
1781532842.797661,2026-06-15T21:14:04.266,47.8515625,-492.67578125,-333.0078125,150.390625
1781532842.801799,2026-06-15T21:14:04.266,22.4609375,-595.703125,-337.40234375,-16.11328125
1781532842.805683,2026-06-15T21:14:04.266,-5.37109375,-665.52734375,-391.11328125,-147.94921875
1781532842.809567,2026-06-15T21:14:04.266,1.46484375,-652.34375,-394.04296875,-90.33203125
1781532842.813452,2026-06-15T21:14:04.266,54.19921875,-488.28125,-317.3828125,108.88671875
1781532842.817336,2026-06-15T21:14:04.267,65.91796875,-440.4296875,-293.45703125,158.69140625
1781532842.821220,2026-06-15T21:14:04.267,21.484375,-618.65234375,-415.0390625,-2.9296875
1781532842.825104,2026-06-15T21:14:04.267,-8.30078125,-861.328125,-450.68359375,-128.41796875
1781532842.828988,2026-06-15T21:14:04.267,-17.578125,-997.55859375,-573.73046875,-96.6796875
1781532842.832873,2026-06-15T21:14:04.267,22.94921875,-713.37890625,-440.4296875,87.890625
1781532842.836757,2026-06-15T21:14:04.267,63.4765625,-172.8515625,-202.63671875,175.78125
1781532842.840641,2026-06-15T21:14:04.267,41.015625,-387.6953125,-356.93359375,39.55078125
1781532842.844525,2026-06-15T21:14:04.267,14.6484375,-739.2578125,-430.17578125,-100.09765625
1781532842.848643,2026-06-15T21:14:04.267,-6.34765625,-608.88671875,-364.74609375,-114.2578125
1781532842.852527,2026-06-15T21:14:04.267,24.4140625,-356.4453125,-286.1328125,56.15234375
1781532842.856411,2026-06-15T21:14:04.267,70.3125,-394.04296875,-315.4296875,187.98828125
1781532842.860296,2026-06-15T21:14:04.267,62.01171875,-576.171875,-398.92578125,79.1015625
1781532842.864180,2026-06-15T21:14:04.267,21.97265625,-690.4296875,-419.921875,-79.58984375
1781532842.868064,2026-06-15T21:14:04.267,-17.578125,-863.28125,-438.4765625,-128.41796875
1781532842.871948,2026-06-15T21:14:04.267,14.6484375,-955.078125,-519.04296875,39.0625
1781532842.875833,2026-06-15T21:14:04.267,47.8515625,-866.69921875,-493.65234375,181.15234375
1781532842.879717,2026-06-15T21:14:04.267,38.57421875,-473.6328125,-284.66796875,80.078125
1781532842.883601,2026-06-15T21:14:04.267,26.85546875,-371.09375,-338.37890625,-85.9375
1781532842.887485,2026-06-15T21:14:04.267,-1.953125,-693.84765625,-400.390625,-138.671875
1781532842.891370,2026-06-15T21:14:04.267,6.8359375,-650.390625,-316.40625,8.7890625
1781532842.895473,2026-06-15T21:14:04.267,44.921875,-203.125,-222.65625,160.15625
1781532842.899358,2026-06-15T21:14:04.267,34.1796875,-281.73828125,-321.2890625,94.23828125
1781532842.903242,2026-06-15T21:14:04.267,14.6484375,-694.3359375,-425.78125,-65.4296875
1781532842.907126,2026-06-15T21:14:04.267,-1.953125,-701.171875,-371.09375,-137.20703125
1781532842.911011,2026-06-15T21:14:04.267,19.04296875,-516.6015625,-362.79296875,-6.8359375
1781532842.914895,2026-06-15T21:14:04.267,41.9921875,-591.796875,-350.09765625,148.4375
1781532842.918779,2026-06-15T21:14:04.267,28.3203125,-824.70703125,-524.4140625,126.953125
1781532842.922664,2026-06-15T21:14:04.267,11.71875,-1000.0,-598.14453125,-38.57421875
1781532842.926548,2026-06-15T21:14:04.267,-16.6015625,-773.4375,-379.39453125,-156.25
1781532842.930432,2026-06-15T21:14:04.267,6.34765625,-519.04296875,-345.21484375,-38.57421875
1781532842.934317,2026-06-15T21:14:04.267,47.8515625,-486.81640625,-301.7578125,141.11328125
1781532842.938201,2026-06-15T21:14:04.267,41.015625,-343.26171875,-265.13671875,137.6953125
1781532842.942277,2026-06-15T21:14:04.267,6.34765625,-291.50390625,-291.9921875,-33.203125
1781532842.946161,2026-06-15T21:14:04.267,-17.578125,-573.2421875,-411.62109375,-146.97265625
1781532842.950046,2026-06-15T21:14:04.267,-5.37109375,-750.9765625,-440.4296875,-58.59375
1781532842.953930,2026-06-15T21:14:04.267,51.7578125,-366.69921875,-273.92578125,129.8828125
1781532842.957814,2026-06-15T21:14:04.267,71.2890625,-273.92578125,-274.4140625,169.921875
1781532842.961699,2026-06-15T21:14:04.267,22.4609375,-739.2578125,-512.6953125,-2.9296875
1781532842.965583,2026-06-15T21:14:04.267,-11.23046875,-902.83203125,-568.359375,-144.53125
1781532842.969468,2026-06-15T21:14:04.267,-6.8359375,-552.734375,-318.84765625,-80.078125
1781532842.973352,2026-06-15T21:14:04.267,33.69140625,-212.40234375,-221.6796875,112.79296875
1781532842.977236,2026-06-15T21:14:04.267,53.7109375,-490.234375,-365.234375,169.921875
1781532842.981121,2026-06-15T21:14:04.267,25.87890625,-923.828125,-494.140625,11.71875
1781532842.985005,2026-06-15T21:14:04.267,-6.8359375,-656.25,-364.74609375,-136.23046875
1781532842.989222,2026-06-15T21:14:04.267,-13.18359375,-468.26171875,-346.6796875,-114.2578125
1781532842.993106,2026-06-15T21:14:04.267,31.25,-668.9453125,-361.328125,93.26171875
1781532842.996990,2026-06-15T21:14:04.267,49.8046875,-619.62890625,-302.734375,185.05859375
1781532843.000875,2026-06-15T21:14:04.267,30.2734375,-348.6328125,-288.57421875,36.62109375
1781532843.004760,2026-06-15T21:14:04.267,12.20703125,-464.84375,-384.27734375,-100.09765625
1781532843.008644,2026-06-15T21:14:04.267,-7.32421875,-826.66015625,-488.76953125,-111.328125
1781532843.012528,2026-06-15T21:14:04.267,27.83203125,-865.234375,-398.4375,59.08203125
1781532843.016413,2026-06-15T21:14:04.267,55.17578125,-693.84765625,-339.84375,199.70703125
1781532843.020298,2026-06-15T21:14:04.267,34.1796875,-732.91015625,-429.19921875,79.58984375
1781532843.024182,2026-06-15T21:14:04.267,4.39453125,-853.02734375,-478.02734375,-97.16796875
1781532843.028066,2026-06-15T21:14:04.267,-15.625,-711.42578125,-386.71875,-126.953125
1781532843.031951,2026-06-15T21:14:04.267,5.859375,-342.28515625,-275.87890625,24.90234375
1781532843.036147,2026-06-15T21:14:04.267,43.9453125,-395.99609375,-319.3359375,158.203125
1781532843.040031,2026-06-15T21:14:04.267,41.9921875,-770.01953125,-404.78515625,76.66015625
1781532843.043916,2026-06-15T21:14:04.267,-1.46484375,-662.109375,-344.7265625,-102.05078125
1781532843.047801,2026-06-15T21:14:04.267,-28.3203125,-458.0078125,-341.30859375,-167.48046875
1781532843.051685,2026-06-15T21:14:04.267,9.765625,-556.15234375,-385.25390625,0.48828125
1781532843.055570,2026-06-15T21:14:04.267,23.4375,-791.015625,-427.24609375,138.671875
1781532843.059454,2026-06-15T21:14:04.267,-1.953125,-679.6875,-351.07421875,54.19921875
1781532843.063339,2026-06-15T21:14:04.267,-20.01953125,-429.19921875,-287.109375,-117.67578125
1781532843.067224,2026-06-15T21:14:04.267,-23.4375,-707.51953125,-484.86328125,-178.22265625
1781532843.071108,2026-06-15T21:14:04.267,-7.32421875,-882.32421875,-548.33984375,-9.27734375
1781532843.074993,2026-06-15T21:14:04.267,18.06640625,-432.6171875,-243.1640625,145.5078125
1781532843.078877,2026-06-15T21:14:04.267,15.13671875,-272.4609375,-282.2265625,78.125
1781532843.083050,2026-06-15T21:14:04.267,-17.08984375,-604.4921875,-383.30078125,-99.609375
1781532843.086934,2026-06-15T21:14:04.267,-29.296875,-710.9375,-373.046875,-182.12890625
1781532843.090819,2026-06-15T21:14:04.267,7.32421875,-426.26953125,-305.17578125,-50.29296875
1781532843.094704,2026-06-15T21:14:04.267,50.78125,-344.7265625,-285.15625,136.23046875
1781532843.098588,2026-06-15T21:14:04.267,39.0625,-587.40234375,-376.46484375,104.00390625
1781532843.102473,2026-06-15T21:14:04.267,5.859375,-831.54296875,-436.03515625,-72.75390625
1781532843.106358,2026-06-15T21:14:04.267,-4.8828125,-905.76171875,-458.0078125,-153.80859375
1781532843.110243,2026-06-15T21:14:04.267,-2.44140625,-828.125,-392.08984375,-67.87109375
1781532843.114127,2026-06-15T21:14:04.267,37.109375,-889.16015625,-479.00390625,128.41796875
1781532843.118012,2026-06-15T21:14:04.267,53.7109375,-722.16796875,-424.8046875,149.4140625
1781532843.121897,2026-06-15T21:14:04.267,17.578125,-328.125,-274.90234375,-33.69140625
1781532843.125781,2026-06-15T21:14:04.267,-9.765625,-514.16015625,-390.625,-144.53125
1781532843.129932,2026-06-15T21:14:04.267,-3.41796875,-681.640625,-400.87890625,-90.33203125
1781532843.133817,2026-06-15T21:14:04.267,40.0390625,-410.64453125,-269.04296875,90.33203125
1781532843.137702,2026-06-15T21:14:04.267,45.8984375,-191.40625,-231.4453125,141.6015625
1781532843.141586,2026-06-15T21:14:04.267,13.671875,-483.88671875,-375.48828125,-13.671875
1781532843.145471,2026-06-15T21:14:04.267,-11.23046875,-811.03515625,-498.046875,-125.9765625
1781532843.149356,2026-06-15T21:14:04.267,-9.27734375,-816.89453125,-462.40234375,-84.47265625
1781532843.153241,2026-06-15T21:14:04.267,33.69140625,-625.9765625,-313.96484375,95.703125
1781532843.157125,2026-06-15T21:14:04.267,47.36328125,-666.015625,-443.84765625,172.36328125
1781532843.161010,2026-06-15T21:14:04.267,21.97265625,-983.3984375,-605.95703125,30.2734375
1781532843.164895,2026-06-15T21:14:04.267,0.48828125,-681.15234375,-356.93359375,-120.1171875
1781532843.168780,2026-06-15T21:14:04.267,-0.48828125,-446.2890625,-345.21484375,-122.0703125
1781532843.172664,2026-06-15T21:14:04.267,38.0859375,-697.75390625,-378.90625,59.5703125
1781532843.176799,2026-06-15T21:14:04.267,70.3125,-583.984375,-291.9921875,157.71484375
1781532843.180684,2026-06-15T21:14:04.267,55.17578125,-247.0703125,-265.13671875,25.390625
1781532843.184568,2026-06-15T21:14:04.267,28.3203125,-417.48046875,-371.58203125,-120.1171875
1781532843.188453,2026-06-15T21:14:04.267,19.53125,-722.65625,-429.19921875,-133.7890625
1781532843.192338,2026-06-15T21:14:04.267,51.26953125,-595.703125,-321.77734375,52.24609375
1781532843.196223,2026-06-15T21:14:04.267,61.5234375,-472.65625,-291.015625,170.8984375
1781532843.200108,2026-06-15T21:14:04.267,29.78515625,-705.56640625,-359.86328125,51.7578125
1781532843.203993,2026-06-15T21:14:04.267,-0.48828125,-955.56640625,-579.1015625,-81.54296875
1781532843.207877,2026-06-15T21:14:04.267,-11.23046875,-849.12109375,-535.64453125,-120.1171875
1781532843.211762,2026-06-15T21:14:04.267,12.6953125,-429.19921875,-287.59765625,22.4609375
1781532843.215647,2026-06-15T21:14:04.267,54.6875,-516.6015625,-333.984375,184.5703125
1781532843.219532,2026-06-15T21:14:04.267,56.640625,-646.97265625,-360.3515625,96.6796875
1781532843.223644,2026-06-15T21:14:04.267,17.578125,-478.515625,-342.28515625,-91.796875
1781532843.227529,2026-06-15T21:14:04.267,-16.11328125,-423.33984375,-342.28515625,-160.64453125
1781532843.231414,2026-06-15T21:14:04.267,-0.9765625,-560.546875,-372.55859375,-12.6953125
1781532843.235299,2026-06-15T21:14:04.267,33.69140625,-534.66796875,-330.078125,151.85546875
1781532843.239184,2026-06-15T21:14:04.267,22.4609375,-308.10546875,-324.21875,82.03125
1781532843.243069,2026-06-15T21:14:04.267,-8.30078125,-650.87890625,-427.734375,-89.35546875
1781532843.246954,2026-06-15T21:14:04.267,-20.5078125,-983.88671875,-562.5,-147.4609375
1781532843.250839,2026-06-15T21:14:04.267,-1.46484375,-931.640625,-566.40625,-10.7421875
1781532843.254724,2026-06-15T21:14:04.267,22.94921875,-502.44140625,-251.46484375,138.18359375
1781532843.258608,2026-06-15T21:14:04.267,16.11328125,-211.42578125,-251.953125,93.26171875
1781532843.262493,2026-06-15T21:14:04.267,-0.9765625,-589.84375,-391.6015625,-64.94140625
1781532843.266378,2026-06-15T21:14:04.267,-20.5078125,-771.484375,-394.53125,-164.0625
1781532843.270466,2026-06-15T21:14:04.267,-17.08984375,-490.72265625,-306.640625,-61.03515625
1781532843.274351,2026-06-15T21:14:04.267,29.296875,-528.3203125,-333.984375,129.8828125
1781532843.278236,2026-06-15T21:14:04.267,33.69140625,-686.5234375,-380.859375,125.0
1781532843.282121,2026-06-15T21:14:04.267,9.27734375,-542.48046875,-309.08203125,-41.9921875
1781532843.286006,2026-06-15T21:14:04.267,-8.7890625,-479.4921875,-375.48828125,-141.11328125
1781532843.289891,2026-06-15T21:14:04.267,-12.6953125,-773.4375,-449.21875,-61.5234375
1781532843.293776,2026-06-15T21:14:04.267,32.2265625,-984.86328125,-523.92578125,128.41796875
1781532843.297661,2026-06-15T21:14:04.267,34.66796875,-851.07421875,-468.75,145.01953125
1781532843.301546,2026-06-15T21:14:04.267,-11.71875,-435.05859375,-273.4375,-30.2734375
1781532843.305431,2026-06-15T21:14:04.267,-30.2734375,-498.046875,-378.41796875,-146.97265625
1781532843.309316,2026-06-15T21:14:04.267,-20.5078125,-736.81640625,-397.94921875,-98.14453125
1781532843.313201,2026-06-15T21:14:04.267,11.23046875,-451.171875,-270.5078125,89.84375
1781532843.317275,2026-06-15T21:14:04.274,33.69140625,-153.3203125,-219.7265625,152.34375
1781532843.321160,2026-06-15T21:14:04.274,17.578125,-398.92578125,-350.5859375,1.953125
1781532843.325045,2026-06-15T21:14:04.274,-8.30078125,-734.375,-450.68359375,-131.8359375
1781532843.328930,2026-06-15T21:14:04.274,-16.11328125,-643.5546875,-380.859375,-108.3984375
1781532843.332815,2026-06-15T21:14:04.274,21.484375,-620.1171875,-335.44921875,75.68359375
1781532843.336700,2026-06-15T21:14:04.274,41.015625,-788.57421875,-435.05859375,167.48046875
1781532843.340585,2026-06-15T21:14:04.274,9.765625,-936.03515625,-533.69140625,26.3671875
1781532843.344471,2026-06-15T21:14:04.274,-20.99609375,-648.4375,-345.703125,-131.8359375
1781532843.348356,2026-06-15T21:14:04.274,-19.04296875,-440.4296875,-323.2421875,-119.62890625
1781532843.352241,2026-06-15T21:14:04.274,22.94921875,-604.4921875,-354.4921875,71.77734375
1781532843.356126,2026-06-15T21:14:04.274,28.3203125,-513.671875,-301.7578125,169.921875
1781532843.360011,2026-06-15T21:14:04.274,-4.8828125,-274.90234375,-269.04296875,29.296875
1781532843.364218,2026-06-15T21:14:04.274,-19.04296875,-378.90625,-341.30859375,-123.046875
1781532843.368104,2026-06-15T21:14:04.274,-25.390625,-723.6328125,-403.3203125,-139.16015625
1781532843.371989,2026-06-15T21:14:04.274,-12.20703125,-643.06640625,-318.84765625,20.5078125
1781532843.375874,2026-06-15T21:14:04.274,22.4609375,-256.8359375,-227.5390625,149.4140625
1781532843.379759,2026-06-15T21:14:04.274,20.5078125,-314.453125,-312.5,51.7578125
1781532843.383644,2026-06-15T21:14:04.274,-1.953125,-749.51171875,-475.09765625,-98.6328125
1781532843.387529,2026-06-15T21:14:04.274,-19.04296875,-975.09765625,-446.77734375,-133.7890625
1781532843.391414,2026-06-15T21:14:04.274,6.8359375,-807.12890625,-349.609375,25.87890625
1781532843.395299,2026-06-15T21:14:04.274,46.38671875,-656.73828125,-341.796875,176.7578125
1781532843.399184,2026-06-15T21:14:04.274,27.34375,-771.97265625,-392.08984375,97.65625
1781532843.403069,2026-06-15T21:14:04.274,-11.23046875,-672.8515625,-355.46875,-78.61328125
1781532843.406955,2026-06-15T21:14:04.274,-24.90234375,-462.890625,-347.65625,-149.90234375
1781532843.411141,2026-06-15T21:14:04.274,0.48828125,-562.5,-360.83984375,1.46484375
1781532843.415026,2026-06-15T21:14:04.274,41.50390625,-526.85546875,-312.5,166.015625
1781532843.418911,2026-06-15T21:14:04.274,48.828125,-316.40625,-261.23046875,114.74609375
1781532843.422796,2026-06-15T21:14:04.274,13.18359375,-289.0625,-281.73828125,-64.453125
1781532843.426682,2026-06-15T21:14:04.274,-21.484375,-605.46875,-425.78125,-144.53125
1781532843.430567,2026-06-15T21:14:04.274,-5.37109375,-912.59765625,-476.07421875,-17.08984375
1781532843.434452,2026-06-15T21:14:04.274,46.38671875,-724.12109375,-322.75390625,150.87890625
1781532843.438337,2026-06-15T21:14:04.274,57.12890625,-363.76953125,-234.375,140.625
1781532843.442223,2026-06-15T21:14:04.274,23.4375,-569.3359375,-446.2890625,-16.11328125
1781532843.446108,2026-06-15T21:14:04.274,3.90625,-982.421875,-629.8828125,-114.74609375
1781532843.449993,2026-06-15T21:14:04.274,2.44140625,-781.25,-354.00390625,-56.640625
1781532843.453878,2026-06-15T21:14:04.274,35.64453125,-344.23828125,-223.6328125,117.1875
1781532843.458045,2026-06-15T21:14:04.274,48.828125,-373.046875,-286.62109375,144.53125
1781532843.461930,2026-06-15T21:14:04.274,20.5078125,-499.0234375,-308.59375,-18.5546875
1781532843.465815,2026-06-15T21:14:04.274,-3.90625,-452.1484375,-334.9609375,-136.71875
1781532843.469700,2026-06-15T21:14:04.274,-4.39453125,-499.0234375,-337.890625,-64.453125
1781532843.473586,2026-06-15T21:14:04.274,28.80859375,-593.75,-363.28125,113.28125
1781532843.477471,2026-06-15T21:14:04.274,39.55078125,-709.9609375,-370.1171875,146.97265625
1781532843.481356,2026-06-15T21:14:04.274,12.20703125,-760.25390625,-396.484375,-1.46484375
1781532843.485242,2026-06-15T21:14:04.274,-17.08984375,-842.7734375,-431.15234375,-140.625
1781532843.489127,2026-06-15T21:14:04.274,-15.13671875,-974.609375,-548.33984375,-100.09765625
1781532843.493012,2026-06-15T21:14:04.274,28.80859375,-719.23828125,-420.41015625,95.21484375
1781532843.496897,2026-06-15T21:14:04.274,38.57421875,-200.1953125,-192.3828125,159.66796875
1781532843.500783,2026-06-15T21:14:04.274,14.16015625,-371.09375,-327.63671875,11.23046875
1781532843.504927,2026-06-15T21:14:04.275,0.0,-732.421875,-432.12890625,-116.69921875
1781532843.508812,2026-06-15T21:14:04.275,-9.765625,-769.53125,-399.90234375,-105.95703125
1781532843.512697,2026-06-15T21:14:04.275,24.4140625,-404.296875,-253.90625,63.96484375
1781532843.516583,2026-06-15T21:14:04.275,52.734375,-295.41015625,-285.64453125,165.52734375
1781532843.520468,2026-06-15T21:14:04.275,19.04296875,-578.125,-414.0625,31.25
1781532843.524354,2026-06-15T21:14:04.275,-10.7421875,-741.2109375,-416.015625,-117.1875
1781532843.528239,2026-06-15T21:14:04.275,-2.9296875,-831.54296875,-391.6015625,-126.46484375
1781532843.532124,2026-06-15T21:14:04.275,42.96875,-853.515625,-461.9140625,50.29296875
1781532843.536010,2026-06-15T21:14:04.275,61.5234375,-858.88671875,-475.09765625,173.828125
1781532843.539895,2026-06-15T21:14:04.275,24.4140625,-442.87109375,-260.25390625,37.109375
1781532843.543780,2026-06-15T21:14:04.275,0.9765625,-334.47265625,-323.73046875,-115.72265625
1781532843.547666,2026-06-15T21:14:04.275,-2.9296875,-713.37890625,-407.71484375,-132.8125
1781532843.551791,2026-06-15T21:14:04.275,20.5078125,-634.27734375,-304.6875,22.4609375
1781532843.555676,2026-06-15T21:14:04.275,56.15234375,-201.171875,-214.35546875,172.36328125
1781532843.559562,2026-06-15T21:14:04.275,46.875,-221.19140625,-291.9921875,85.9375
1781532843.563447,2026-06-15T21:14:04.275,3.41796875,-638.671875,-400.87890625,-93.26171875
1781532843.567333,2026-06-15T21:14:04.275,-23.92578125,-951.171875,-453.125,-159.66796875
1781532843.571218,2026-06-15T21:14:04.275,-1.46484375,-857.91015625,-406.73828125,-20.5078125
1781532843.575104,2026-06-15T21:14:04.275,39.0625,-631.8359375,-320.3125,145.01953125
1781532843.578989,2026-06-15T21:14:04.275,33.203125,-817.3828125,-515.13671875,110.83984375
1781532843.582875,2026-06-15T21:14:04.275,-3.41796875,-877.44140625,-501.953125,-64.453125
1781532843.586760,2026-06-15T21:14:04.275,-9.27734375,-469.23828125,-300.78125,-159.66796875
1781532843.590646,2026-06-15T21:14:04.275,24.4140625,-462.890625,-351.07421875,-19.04296875
1781532843.594531,2026-06-15T21:14:04.275,36.1328125,-511.23046875,-320.3125,149.90234375
1781532843.598639,2026-06-15T21:14:04.275,29.296875,-324.21875,-279.296875,120.1171875
1781532843.602524,2026-06-15T21:14:04.275,16.11328125,-346.6796875,-320.80078125,-36.62109375
1781532843.606410,2026-06-15T21:14:04.275,-6.8359375,-665.0390625,-428.22265625,-136.71875
1781532843.610295,2026-06-15T21:14:04.275,9.27734375,-734.375,-408.69140625,-45.8984375
1781532843.614181,2026-06-15T21:14:04.275,45.41015625,-369.62890625,-281.25,136.71875
1781532843.618066,2026-06-15T21:14:04.275,47.8515625,-512.6953125,-326.66015625,152.34375
1781532843.621952,2026-06-15T21:14:04.275,25.390625,-874.51171875,-521.484375,-1.46484375
1781532843.625837,2026-06-15T21:14:04.275,-1.46484375,-979.98046875,-618.1640625,-118.1640625
1781532843.629723,2026-06-15T21:14:04.275,-1.46484375,-651.3671875,-320.80078125,-65.91796875
1781532843.633608,2026-06-15T21:14:04.275,29.296875,-225.5859375,-213.8671875,110.83984375
1781532843.637494,2026-06-15T21:14:04.275,35.64453125,-476.07421875,-313.4765625,149.4140625
1781532843.641379,2026-06-15T21:14:04.275,25.390625,-746.58203125,-369.140625,4.39453125
1781532843.645466,2026-06-15T21:14:04.275,10.7421875,-527.34375,-327.63671875,-120.60546875
1781532843.649352,2026-06-15T21:14:04.275,0.48828125,-459.9609375,-333.984375,-80.56640625
1781532843.653237,2026-06-15T21:14:04.275,34.1796875,-562.98828125,-329.58984375,105.95703125
1781532843.657123,2026-06-15T21:14:04.275,47.8515625,-409.1796875,-255.37109375,166.015625
1781532843.661008,2026-06-15T21:14:04.275,16.6015625,-353.515625,-327.1484375,9.765625
1781532843.664894,2026-06-15T21:14:04.275,-8.7890625,-755.859375,-435.05859375,-135.7421875
1781532843.668780,2026-06-15T21:14:04.275,-14.16015625,-1000.0,-602.5390625,-106.4453125
1781532843.672665,2026-06-15T21:14:04.275,23.92578125,-798.828125,-480.95703125,88.8671875
1781532843.676551,2026-06-15T21:14:04.275,51.26953125,-253.90625,-192.3828125,170.8984375
1781532843.680436,2026-06-15T21:14:04.275,17.578125,-381.8359375,-357.421875,25.87890625
1781532843.684322,2026-06-15T21:14:04.275,-16.11328125,-740.72265625,-425.29296875,-123.046875
1781532843.688207,2026-06-15T21:14:04.275,-17.08984375,-615.234375,-339.84375,-125.48828125
1781532843.692277,2026-06-15T21:14:04.275,20.5078125,-306.640625,-253.41796875,50.29296875
1781532843.696162,2026-06-15T21:14:04.275,47.36328125,-326.66015625,-290.0390625,175.78125
1781532843.700048,2026-06-15T21:14:04.275,31.73828125,-608.3984375,-390.625,63.4765625
1781532843.703933,2026-06-15T21:14:04.275,-2.9296875,-525.87890625,-335.9375,-99.609375
1781532843.707819,2026-06-15T21:14:04.275,-21.97265625,-459.9609375,-326.171875,-144.53125
1781532843.711705,2026-06-15T21:14:04.275,7.8125,-766.11328125,-458.49609375,32.2265625
1781532843.715590,2026-06-15T21:14:04.275,36.1328125,-930.6640625,-472.16796875,185.05859375
1781532843.719476,2026-06-15T21:14:04.275,14.16015625,-538.0859375,-282.71484375,63.96484375
1781532843.723361,2026-06-15T21:14:04.275,-15.625,-319.3359375,-294.43359375,-102.05078125
1781532843.727247,2026-06-15T21:14:04.275,-23.92578125,-660.64453125,-406.73828125,-144.04296875
1781532843.731133,2026-06-15T21:14:04.275,14.16015625,-648.4375,-351.5625,14.16015625
1781532843.735018,2026-06-15T21:14:04.275,40.0390625,-175.29296875,-206.0546875,164.0625
1781532843.739216,2026-06-15T21:14:04.275,21.484375,-225.5859375,-309.08203125,84.47265625
1781532843.743101,2026-06-15T21:14:04.275,1.953125,-693.84765625,-444.82421875,-74.21875
1781532843.746987,2026-06-15T21:14:04.275,-14.6484375,-766.11328125,-388.18359375,-155.76171875
1781532843.750873,2026-06-15T21:14:04.275,5.37109375,-421.38671875,-289.55078125,-20.99609375
1781532843.754758,2026-06-15T21:14:04.275,33.69140625,-343.75,-274.90234375,145.5078125
1781532843.758644,2026-06-15T21:14:04.275,23.92578125,-747.0703125,-404.78515625,75.68359375
1781532843.762530,2026-06-15T21:14:04.275,3.90625,-972.16796875,-465.33203125,-74.70703125
1781532843.766416,2026-06-15T21:14:04.275,-25.87890625,-922.36328125,-435.05859375,-141.11328125
1781532843.770301,2026-06-15T21:14:04.275,-21.97265625,-673.828125,-342.28515625,-32.2265625
1781532843.774187,2026-06-15T21:14:04.275,29.78515625,-771.97265625,-424.31640625,149.90234375
1781532843.778073,2026-06-15T21:14:04.275,31.25,-734.86328125,-389.16015625,126.46484375
1781532843.781958,2026-06-15T21:14:04.275,4.8828125,-332.03125,-275.87890625,-57.12890625
1781532843.786136,2026-06-15T21:14:04.275,-16.6015625,-560.546875,-409.1796875,-150.87890625
1781532843.790022,2026-06-15T21:14:04.275,-20.99609375,-811.03515625,-435.546875,-69.82421875
1781532843.793907,2026-06-15T21:14:04.275,16.6015625,-458.49609375,-254.8828125,99.12109375
1781532843.797793,2026-06-15T21:14:04.275,16.6015625,-313.96484375,-286.1328125,113.28125
1781532843.801679,2026-06-15T21:14:04.275,-23.92578125,-706.54296875,-459.9609375,-47.36328125
1781532843.805565,2026-06-15T21:14:04.275,-48.828125,-987.3046875,-512.6953125,-162.109375
1781532843.809451,2026-06-15T21:14:04.275,-31.25,-815.91796875,-381.34765625,-105.95703125
1781532843.813336,2026-06-15T21:14:04.275,10.7421875,-346.19140625,-226.07421875,78.125
1781532843.817222,2026-06-15T21:14:04.275,30.2734375,-557.12890625,-419.921875,147.94921875
1781532843.821108,2026-06-15T21:14:04.275,18.06640625,-952.63671875,-557.6171875,9.765625
1781532843.824994,2026-06-15T21:14:04.275,-6.34765625,-652.34375,-344.7265625,-134.27734375
1781532843.828880,2026-06-15T21:14:04.275,-4.8828125,-501.953125,-346.19140625,-105.46875
1781532843.833042,2026-06-15T21:14:04.275,20.01953125,-637.20703125,-321.77734375,74.21875
1781532843.836928,2026-06-15T21:14:04.275,31.25,-537.109375,-267.08984375,140.625
1781532843.840814,2026-06-15T21:14:04.275,18.5546875,-334.47265625,-286.62109375,-1.953125
1781532843.844700,2026-06-15T21:14:04.275,-3.41796875,-466.30859375,-362.79296875,-142.08984375
1781532843.848586,2026-06-15T21:14:04.275,-13.18359375,-766.6015625,-434.08203125,-143.5546875
1781532843.852472,2026-06-15T21:14:04.275,13.671875,-814.94140625,-387.20703125,42.96875
1781532843.856358,2026-06-15T21:14:04.275,43.45703125,-678.7109375,-350.09765625,165.52734375
1781532843.860244,2026-06-15T21:14:04.275,16.6015625,-705.56640625,-365.72265625,29.78515625
1781532843.864130,2026-06-15T21:14:04.275,-18.06640625,-924.8046875,-557.12890625,-111.81640625
1781532843.868015,2026-06-15T21:14:04.275,-24.90234375,-856.93359375,-517.578125,-135.25390625
1781532843.871901,2026-06-15T21:14:04.275,5.37109375,-351.07421875,-240.234375,6.8359375
1781532843.875787,2026-06-15T21:14:04.275,36.1328125,-298.33984375,-277.83203125,148.92578125
1781532843.879926,2026-06-15T21:14:04.275,28.3203125,-510.7421875,-339.35546875,59.5703125
1781532843.883812,2026-06-15T21:14:04.275,-0.9765625,-497.0703125,-340.33203125,-103.515625
1781532843.887698,2026-06-15T21:14:04.275,-22.94921875,-459.9609375,-336.42578125,-153.3203125
1781532843.891584,2026-06-15T21:14:04.275,4.39453125,-520.99609375,-333.49609375,10.25390625
1781532843.895470,2026-06-15T21:14:04.275,37.59765625,-602.5390625,-374.51171875,157.2265625
1781532843.899356,2026-06-15T21:14:04.275,28.3203125,-669.43359375,-400.87890625,69.3359375
1781532843.903242,2026-06-15T21:14:04.275,-9.765625,-659.1796875,-338.8671875,-97.65625
1781532843.907128,2026-06-15T21:14:04.275,-33.203125,-751.46484375,-477.05078125,-154.78515625
1781532843.911014,2026-06-15T21:14:04.275,-4.39453125,-887.6953125,-541.015625,-2.44140625
1781532843.914900,2026-06-15T21:14:04.275,33.203125,-468.75,-257.32421875,146.484375
1781532843.918786,2026-06-15T21:14:04.275,35.15625,-452.1484375,-339.35546875,91.30859375
1781532843.922672,2026-06-15T21:14:04.275,3.41796875,-754.39453125,-394.53125,-68.359375
1781532843.926790,2026-06-15T21:14:04.275,-31.73828125,-725.09765625,-361.328125,-149.4140625
1781532843.930676,2026-06-15T21:14:04.275,-8.7890625,-433.59375,-297.36328125,-27.83203125
1781532843.934562,2026-06-15T21:14:04.275,32.71484375,-284.1796875,-264.16015625,145.5078125
1781532843.938448,2026-06-15T21:14:04.275,21.484375,-472.65625,-319.3359375,123.046875
1781532843.942334,2026-06-15T21:14:04.275,-6.34765625,-581.0546875,-352.5390625,-57.6171875
1781532843.946220,2026-06-15T21:14:04.275,-18.5546875,-742.67578125,-441.40625,-159.66796875
1781532843.950106,2026-06-15T21:14:04.275,7.32421875,-862.3046875,-402.34375,-57.12890625
1781532843.953992,2026-06-15T21:14:04.275,67.3828125,-933.59375,-485.3515625,142.08984375
1781532843.957878,2026-06-15T21:14:04.275,79.1015625,-767.578125,-446.2890625,153.80859375
1781532843.961764,2026-06-15T21:14:04.275,34.66796875,-328.125,-266.11328125,-32.2265625
1781532843.965650,2026-06-15T21:14:04.275,14.16015625,-514.16015625,-379.8828125,-138.18359375
1781532843.969536,2026-06-15T21:14:04.275,23.92578125,-702.63671875,-376.953125,-64.453125
1781532843.973635,2026-06-15T21:14:04.275,50.29296875,-487.79296875,-287.109375,128.41796875
1781532843.977522,2026-06-15T21:14:04.275,61.03515625,-410.15625,-291.9921875,175.29296875
1781532843.981408,2026-06-15T21:14:04.275,27.34375,-598.14453125,-374.51171875,0.0
1781532843.985294,2026-06-15T21:14:04.275,-12.20703125,-768.06640625,-448.2421875,-138.671875
1781532843.989180,2026-06-15T21:14:04.275,-5.859375,-612.3046875,-372.0703125,-77.63671875
1781532843.993066,2026-06-15T21:14:04.275,33.69140625,-583.984375,-324.70703125,122.55859375
1781532843.996952,2026-06-15T21:14:04.275,41.9921875,-748.046875,-414.55078125,174.8046875
1781532844.000838,2026-06-15T21:14:04.275,12.20703125,-822.75390625,-475.5859375,12.6953125
1781532844.004724,2026-06-15T21:14:05.275,-12.20703125,-572.75390625,-341.796875,-140.625
1781532844.008610,2026-06-15T21:14:05.275,-8.7890625,-422.8515625,-300.78125,-121.09375
1781532844.012496,2026-06-15T21:14:05.275,18.5546875,-705.56640625,-434.5703125,76.66015625
1781532844.016382,2026-06-15T21:14:05.275,31.73828125,-814.453125,-469.23828125,171.38671875
1781532844.020463,2026-06-15T21:14:05.275,3.41796875,-364.74609375,-264.16015625,11.23046875
1781532844.024350,2026-06-15T21:14:05.275,-28.80859375,-382.32421875,-339.35546875,-135.25390625
1781532844.028236,2026-06-15T21:14:05.275,-24.4140625,-703.125,-412.59765625,-117.1875
1781532844.032122,2026-06-15T21:14:05.275,10.25390625,-716.796875,-352.5390625,57.6171875
1781532844.036008,2026-06-15T21:14:05.275,35.64453125,-545.41015625,-341.796875,161.62109375
1781532844.039894,2026-06-15T21:14:05.275,23.92578125,-643.06640625,-369.140625,41.015625
1781532844.043780,2026-06-15T21:14:05.275,-1.953125,-919.43359375,-586.42578125,-99.12109375
1781532844.047666,2026-06-15T21:14:05.275,-14.16015625,-880.859375,-583.0078125,-136.23046875
1781532844.051553,2026-06-15T21:14:05.275,11.23046875,-432.12890625,-251.46484375,2.44140625
1781532844.055439,2026-06-15T21:14:05.275,47.36328125,-289.55078125,-248.046875,151.3671875
1781532844.059325,2026-06-15T21:14:05.275,24.90234375,-528.80859375,-357.421875,48.828125
1781532844.063211,2026-06-15T21:14:05.275,-19.53125,-597.65625,-364.74609375,-115.234375
1781532844.067273,2026-06-15T21:14:05.275,-25.87890625,-444.82421875,-323.2421875,-145.5078125
1781532844.071159,2026-06-15T21:14:05.275,13.671875,-517.08984375,-350.5859375,21.97265625
1781532844.075045,2026-06-15T21:14:05.275,36.62109375,-521.97265625,-323.2421875,175.29296875
1781532844.078931,2026-06-15T21:14:05.275,15.13671875,-259.765625,-248.046875,103.02734375
1781532844.082818,2026-06-15T21:14:05.275,-14.6484375,-362.79296875,-321.77734375,-70.3125
1781532844.086704,2026-06-15T21:14:05.275,-28.80859375,-780.2734375,-504.8828125,-154.78515625
1781532844.090590,2026-06-15T21:14:05.275,-7.8125,-1000.0,-535.64453125,-26.85546875
1781532844.094476,2026-06-15T21:14:05.275,26.3671875,-620.60546875,-277.83203125,136.71875
1781532844.098362,2026-06-15T21:14:05.275,28.80859375,-183.10546875,-216.30859375,94.7265625
1781532844.102248,2026-06-15T21:14:05.275,1.46484375,-530.2734375,-354.98046875,-63.96484375
1781532844.106135,2026-06-15T21:14:05.275,-25.87890625,-791.9921875,-413.0859375,-150.87890625
1781532844.110021,2026-06-15T21:14:05.275,-19.53125,-513.671875,-314.453125,-44.43359375
1781532844.114215,2026-06-15T21:14:05.275,18.06640625,-297.36328125,-234.86328125,138.18359375
1781532844.118102,2026-06-15T21:14:05.275,26.3671875,-481.4453125,-303.22265625,135.7421875
1781532844.121988,2026-06-15T21:14:05.275,-5.37109375,-576.66015625,-322.265625,-31.73828125
1781532844.125874,2026-06-15T21:14:05.275,-17.08984375,-460.9375,-323.73046875,-129.8828125
1781532844.129761,2026-06-15T21:14:05.275,0.48828125,-559.08203125,-371.58203125,-44.43359375
1781532844.133647,2026-06-15T21:14:05.275,33.203125,-757.32421875,-390.13671875,137.6953125
1781532844.137533,2026-06-15T21:14:05.275,52.734375,-820.3125,-361.81640625,157.2265625
1781532844.141419,2026-06-15T21:14:05.275,16.11328125,-702.63671875,-343.26171875,-21.484375
1781532844.145305,2026-06-15T21:14:05.275,-25.390625,-607.91015625,-367.67578125,-152.34375
1781532844.149192,2026-06-15T21:14:05.275,-22.4609375,-831.0546875,-465.8203125,-86.42578125
1781532844.153078,2026-06-15T21:14:05.275,17.08984375,-694.3359375,-318.359375,99.609375
1781532844.156964,2026-06-15T21:14:05.275,19.04296875,-171.38671875,-174.8046875,137.6953125
1781532844.161136,2026-06-15T21:14:05.275,0.48828125,-334.47265625,-315.91796875,-13.671875
1781532844.165023,2026-06-15T21:14:05.275,-3.41796875,-694.3359375,-419.43359375,-126.953125
1781532844.168909,2026-06-15T21:14:05.275,0.9765625,-608.3984375,-348.6328125,-95.21484375
1781532844.172796,2026-06-15T21:14:05.275,37.59765625,-300.78125,-230.95703125,85.44921875
1781532844.176682,2026-06-15T21:14:05.275,50.29296875,-339.84375,-284.66796875,159.1796875
1781532844.180568,2026-06-15T21:14:05.275,26.3671875,-765.625,-431.640625,10.25390625
1781532844.184454,2026-06-15T21:14:05.275,9.27734375,-776.3671875,-385.7421875,-121.09375
1781532844.188341,2026-06-15T21:14:05.275,-0.9765625,-476.5625,-278.3203125,-125.9765625
1781532844.192227,2026-06-15T21:14:05.275,18.06640625,-617.1875,-405.2734375,43.45703125
1781532844.196114,2026-06-15T21:14:05.275,33.69140625,-945.80078125,-507.8125,169.43359375
1781532844.200000,2026-06-15T21:14:05.275,19.04296875,-567.87109375,-271.484375,41.50390625
1781532844.203886,2026-06-15T21:14:05.275,-4.8828125,-351.07421875,-307.12890625,-116.69921875
1781532844.208039,2026-06-15T21:14:05.275,-21.484375,-790.52734375,-474.609375,-136.23046875
1781532844.211926,2026-06-15T21:14:05.275,1.953125,-783.69140625,-366.2109375,32.2265625
1781532844.215812,2026-06-15T21:14:05.275,12.20703125,-255.859375,-195.3125,145.5078125
1781532844.219698,2026-06-15T21:14:05.275,-3.41796875,-200.68359375,-266.6015625,28.80859375
1781532844.223585,2026-06-15T21:14:05.275,-22.94921875,-626.953125,-406.73828125,-124.51171875
1781532844.227471,2026-06-15T21:14:05.275,-50.29296875,-962.40234375,-471.6796875,-168.45703125
1781532844.231358,2026-06-15T21:14:05.275,-40.0390625,-819.3359375,-367.1875,-26.3671875
1781532844.235244,2026-06-15T21:14:05.275,-20.5078125,-630.37109375,-326.171875,108.3984375
1781532844.239130,2026-06-15T21:14:05.275,-40.0390625,-669.921875,-352.05078125,13.671875
1781532844.243017,2026-06-15T21:14:05.276,-73.73046875,-621.58203125,-321.2890625,-157.2265625
1781532844.246903,2026-06-15T21:14:05.276,-94.23828125,-483.3984375,-322.265625,-216.796875
1781532844.250790,2026-06-15T21:14:05.276,-70.80078125,-477.05078125,-326.171875,-78.61328125
1781532844.254922,2026-06-15T21:14:05.276,-23.4375,-673.828125,-329.1015625,87.40234375
1781532844.258809,2026-06-15T21:14:05.276,-38.57421875,-501.953125,-259.27734375,23.92578125
1781532844.262695,2026-06-15T21:14:05.276,-108.3984375,-323.73046875,-299.31640625,-184.08203125
1781532844.266582,2026-06-15T21:14:05.276,-148.4375,-687.01171875,-435.05859375,-283.203125
1781532844.270468,2026-06-15T21:14:05.276,-131.34765625,-780.2734375,-431.15234375,-150.87890625
1781532844.274355,2026-06-15T21:14:05.276,-107.421875,-509.765625,-311.5234375,7.32421875
1781532844.278241,2026-06-15T21:14:05.276,-97.65625,-522.4609375,-287.59765625,-15.625
1781532844.282128,2026-06-15T21:14:05.276,-133.7890625,-771.97265625,-481.93359375,-177.24609375
1781532844.286014,2026-06-15T21:14:05.276,-171.875,-945.3125,-599.12109375,-277.83203125
1781532844.289901,2026-06-15T21:14:05.276,-163.0859375,-544.43359375,-279.78515625,-201.66015625
1781532844.293787,2026-06-15T21:14:05.276,-135.7421875,-166.9921875,-207.51953125,-37.59765625
1781532844.297674,2026-06-15T21:14:05.276,-101.5625,-408.203125,-283.203125,4.8828125
1781532844.301786,2026-06-15T21:14:05.276,-135.7421875,-603.515625,-320.3125,-172.36328125
1781532844.305673,2026-06-15T21:14:05.276,-154.296875,-500.48828125,-344.7265625,-284.1796875
1781532844.309560,2026-06-15T21:14:05.276,-129.8828125,-489.2578125,-347.16796875,-191.89453125
1781532844.313446,2026-06-15T21:14:05.276,-93.26171875,-524.4140625,-321.77734375,7.32421875
1781532844.317333,2026-06-15T21:14:05.276,-61.03515625,-459.9609375,-292.48046875,66.89453125
1781532844.321219,2026-06-15T21:14:05.276,-79.58984375,-686.03515625,-431.15234375,-89.84375
1781532844.325106,2026-06-15T21:14:05.276,-84.47265625,-932.6171875,-441.89453125,-183.59375
1781532844.328992,2026-06-15T21:14:05.276,-70.3125,-1000.0,-542.48046875,-118.65234375
1781532844.332879,2026-06-15T21:14:05.276,-41.015625,-784.1796875,-465.33203125,58.10546875
1781532844.336765,2026-06-15T21:14:05.276,0.48828125,-224.609375,-181.640625,133.7890625
1781532844.340652,2026-06-15T21:14:05.276,-7.32421875,-356.4453125,-317.87109375,0.0
1781532844.344538,2026-06-15T21:14:05.276,-26.85546875,-700.1953125,-396.484375,-121.09375
1781532844.348632,2026-06-15T21:14:05.276,-19.04296875,-553.22265625,-328.125,-85.9375
1781532844.352519,2026-06-15T21:14:05.276,31.73828125,-262.20703125,-238.28125,100.09765625
1781532844.356406,2026-06-15T21:14:05.276,81.54296875,-309.5703125,-275.390625,209.9609375
1781532844.360292,2026-06-15T21:14:05.276,74.21875,-574.70703125,-386.23046875,90.33203125
1781532844.364179,2026-06-15T21:14:05.276,44.921875,-549.8046875,-367.1875,-55.6640625
1781532844.368066,2026-06-15T21:14:05.276,39.55078125,-699.21875,-396.484375,-62.01171875
1781532844.371952,2026-06-15T21:14:05.276,77.1484375,-896.484375,-453.61328125,131.8359375
1781532844.375839,2026-06-15T21:14:05.276,114.2578125,-892.578125,-445.80078125,264.16015625
1781532844.379725,2026-06-15T21:14:05.276,96.6796875,-537.59765625,-285.64453125,129.39453125
1781532844.383612,2026-06-15T21:14:05.276,59.08203125,-556.640625,-376.953125,-36.62109375
1781532844.387499,2026-06-15T21:14:05.276,50.78125,-921.875,-465.33203125,-66.40625
1781532844.391385,2026-06-15T21:14:05.276,80.078125,-650.87890625,-302.24609375,91.796875
1781532844.395462,2026-06-15T21:14:05.276,111.81640625,-259.27734375,-212.40234375,235.3515625
1781532844.399349,2026-06-15T21:14:05.276,104.00390625,-292.48046875,-304.6875,139.6484375
1781532844.403235,2026-06-15T21:14:05.276,89.84375,-670.41015625,-395.5078125,-13.671875
1781532844.407122,2026-06-15T21:14:05.276,72.75390625,-690.4296875,-337.890625,-51.26953125
1781532844.411009,2026-06-15T21:14:05.276,86.9140625,-424.31640625,-313.4765625,87.890625
1781532844.414895,2026-06-15T21:14:05.276,122.0703125,-529.296875,-316.89453125,237.3046875
1781532844.418782,2026-06-15T21:14:05.276,111.328125,-847.65625,-518.5546875,185.05859375
1781532844.422669,2026-06-15T21:14:05.276,92.7734375,-867.1875,-547.36328125,26.3671875
1781532844.426555,2026-06-15T21:14:05.276,72.265625,-480.95703125,-289.55078125,-74.21875
1781532844.430442,2026-06-15T21:14:05.276,78.61328125,-479.4921875,-337.890625,53.22265625
1781532844.434329,2026-06-15T21:14:05.276,120.60546875,-538.0859375,-310.546875,231.93359375
1781532844.438215,2026-06-15T21:14:05.276,119.62890625,-349.12109375,-244.140625,194.3359375
1781532844.442273,2026-06-15T21:14:05.276,85.9375,-479.00390625,-340.33203125,21.97265625
1781532844.446159,2026-06-15T21:14:05.276,65.4296875,-828.125,-446.2890625,-65.4296875
1781532844.450046,2026-06-15T21:14:05.276,76.171875,-756.8359375,-364.74609375,52.24609375
1781532844.453933,2026-06-15T21:14:05.276,104.98046875,-295.8984375,-198.2421875,218.26171875
1781532844.457820,2026-06-15T21:14:05.276,109.86328125,-180.6640625,-234.86328125,198.2421875
1781532844.461706,2026-06-15T21:14:05.276,82.03125,-681.640625,-486.328125,41.9921875
1781532844.465593,2026-06-15T21:14:05.276,53.7109375,-925.29296875,-533.69140625,-62.01171875
1781532844.469480,2026-06-15T21:14:05.276,58.59375,-595.703125,-316.40625,1.46484375
1781532844.473366,2026-06-15T21:14:05.276,100.09765625,-222.16796875,-204.1015625,183.10546875
1781532844.477253,2026-06-15T21:14:05.276,94.23828125,-418.9453125,-316.40625,202.63671875
1781532844.481140,2026-06-15T21:14:05.276,56.15234375,-761.23046875,-465.8203125,27.34375
1781532844.485027,2026-06-15T21:14:05.276,34.1796875,-631.8359375,-358.3984375,-95.703125
1781532844.489211,2026-06-15T21:14:05.276,39.0625,-473.6328125,-288.57421875,-31.73828125
1781532844.493098,2026-06-15T21:14:05.276,72.75390625,-531.25,-290.52734375,166.50390625
1781532844.496985,2026-06-15T21:14:05.276,85.44921875,-488.76953125,-271.484375,222.16796875
1781532844.500871,2026-06-15T21:14:05.276,58.59375,-504.8828125,-326.171875,58.10546875
1781532844.504758,2026-06-15T21:14:05.276,33.69140625,-807.6171875,-417.48046875,-71.2890625
1781532844.508645,2026-06-15T21:14:05.276,44.43359375,-914.0625,-467.7734375,-31.73828125
1781532844.512532,2026-06-15T21:14:05.276,77.63671875,-841.30859375,-385.7421875,138.18359375
1781532844.516419,2026-06-15T21:14:05.276,89.84375,-629.8828125,-314.94140625,206.54296875
1781532844.520305,2026-06-15T21:14:05.276,72.75390625,-606.4453125,-384.27734375,56.640625
1781532844.524192,2026-06-15T21:14:05.276,46.38671875,-843.26171875,-475.09765625,-90.8203125
1781532844.528079,2026-06-15T21:14:05.276,27.34375,-786.62109375,-390.625,-92.28515625
1781532844.531966,2026-06-15T21:14:05.276,57.12890625,-451.171875,-281.73828125,70.80078125
1781532844.536274,2026-06-15T21:14:05.276,83.49609375,-380.37109375,-275.390625,187.01171875
1781532844.540161,2026-06-15T21:14:05.276,62.5,-550.29296875,-308.10546875,80.078125
1781532844.544048,2026-06-15T21:14:05.276,28.3203125,-480.46875,-303.7109375,-69.3359375
1781532844.547935,2026-06-15T21:14:05.276,10.25390625,-371.58203125,-296.38671875,-101.5625
1781532844.551822,2026-06-15T21:14:05.276,38.0859375,-445.80078125,-314.94140625,62.01171875
1781532844.555709,2026-06-15T21:14:05.276,65.91796875,-646.97265625,-367.1875,189.94140625
1781532844.559596,2026-06-15T21:14:05.276,52.24609375,-735.3515625,-370.60546875,78.125
1781532844.563482,2026-06-15T21:14:05.276,21.484375,-606.93359375,-300.29296875,-80.078125
1781532844.567369,2026-06-15T21:14:05.276,-1.46484375,-707.51953125,-449.70703125,-110.3515625
1781532844.571256,2026-06-15T21:14:05.276,18.5546875,-858.3984375,-510.25390625,59.08203125
1781532844.575143,2026-06-15T21:14:05.276,45.41015625,-376.953125,-220.703125,187.98828125
1781532844.579030,2026-06-15T21:14:05.276,44.921875,-184.08203125,-247.0703125,101.07421875
1781532844.583172,2026-06-15T21:14:05.276,21.484375,-540.52734375,-337.890625,-54.6875
1781532844.587059,2026-06-15T21:14:05.276,-17.08984375,-680.17578125,-350.09765625,-131.34765625
1781532844.590946,2026-06-15T21:14:05.276,-6.8359375,-382.32421875,-256.8359375,-11.23046875
1781532844.594833,2026-06-15T21:14:05.276,25.390625,-262.20703125,-255.37109375,144.04296875
1781532844.598720,2026-06-15T21:14:05.276,1.953125,-518.5546875,-353.02734375,70.3125
1781532844.602607,2026-06-15T21:14:05.276,-39.55078125,-784.66796875,-400.87890625,-110.83984375
1781532844.606494,2026-06-15T21:14:05.276,-71.77734375,-803.7109375,-400.87890625,-194.82421875
1781532844.610381,2026-06-15T21:14:05.276,-67.3828125,-727.5390625,-351.5625,-94.7265625
1781532844.614268,2026-06-15T21:14:05.276,-36.1328125,-630.37109375,-320.80078125,67.87109375
1781532844.618155,2026-06-15T21:14:05.276,-65.91796875,-551.26953125,-296.38671875,21.97265625
1781532844.622042,2026-06-15T21:14:05.276,-107.421875,-531.73828125,-327.1484375,-167.96875
1781532844.625929,2026-06-15T21:14:05.276,-144.04296875,-569.82421875,-376.46484375,-287.109375
1781532844.630058,2026-06-15T21:14:05.276,-158.203125,-854.98046875,-482.91015625,-212.40234375
1781532844.633945,2026-06-15T21:14:05.276,-139.16015625,-674.31640625,-349.609375,-43.9453125
1781532844.637832,2026-06-15T21:14:05.276,-158.203125,-232.91015625,-226.5625,-47.36328125
1781532844.641719,2026-06-15T21:14:05.276,-195.3125,-456.0546875,-351.07421875,-223.14453125
1781532844.645606,2026-06-15T21:14:05.276,-213.37890625,-816.89453125,-468.26171875,-330.078125
1781532844.649493,2026-06-15T21:14:05.276,-204.58984375,-896.484375,-440.91796875,-251.46484375
1781532844.653380,2026-06-15T21:14:05.276,-160.15625,-618.1640625,-281.25,-89.35546875
1781532844.657267,2026-06-15T21:14:05.276,-139.6484375,-557.6171875,-378.41796875,-41.015625
1781532844.661154,2026-06-15T21:14:05.276,-164.0625,-878.90625,-523.92578125,-186.03515625
1781532844.665041,2026-06-15T21:14:05.276,-183.59375,-607.91015625,-335.44921875,-314.453125
1781532844.668928,2026-06-15T21:14:05.276,-181.640625,-337.890625,-265.625,-257.8125
1781532844.672815,2026-06-15T21:14:05.276,-133.30078125,-639.6484375,-413.57421875,-52.734375
1781532844.676922,2026-06-15T21:14:05.276,-114.2578125,-900.87890625,-477.05078125,27.34375
1781532844.680809,2026-06-15T21:14:05.276,-141.6015625,-484.86328125,-268.5546875,-141.11328125
1781532844.684696,2026-06-15T21:14:05.276,-145.5078125,-331.0546875,-304.19921875,-262.20703125
1781532844.688583,2026-06-15T21:14:05.276,-128.90625,-624.0234375,-356.93359375,-216.30859375
1781532844.692471,2026-06-15T21:14:05.276,-86.9140625,-539.0625,-281.25,-43.9453125
1781532844.696358,2026-06-15T21:14:05.276,-51.7578125,-454.1015625,-295.41015625,62.01171875
1781532844.700245,2026-06-15T21:14:05.276,-40.52734375,-684.5703125,-333.984375,-38.57421875
1781532844.704132,2026-06-15T21:14:05.276,-50.29296875,-937.5,-575.68359375,-158.69140625
1781532844.708019,2026-06-15T21:14:05.276,-61.03515625,-862.79296875,-546.875,-171.38671875
1781532844.711906,2026-06-15T21:14:05.276,-4.8828125,-409.1796875,-236.81640625,6.34765625
1781532844.715793,2026-06-15T21:14:05.276,38.57421875,-315.4296875,-271.484375,156.25
1781532844.719680,2026-06-15T21:14:05.276,36.1328125,-477.05078125,-321.2890625,59.08203125
1781532844.723768,2026-06-15T21:14:05.276,32.71484375,-494.140625,-315.4296875,-79.1015625
1781532844.727656,2026-06-15T21:14:05.276,33.203125,-427.734375,-304.6875,-102.05078125
1781532844.731543,2026-06-15T21:14:05.276,69.3359375,-451.66015625,-304.19921875,61.5234375
1781532844.735430,2026-06-15T21:14:05.276,102.5390625,-599.609375,-320.80078125,224.609375
1781532844.739317,2026-06-15T21:14:05.276,101.5625,-557.12890625,-319.82421875,147.94921875
1781532844.743204,2026-06-15T21:14:05.276,81.0546875,-676.26953125,-377.9296875,-16.6015625
1781532844.747092,2026-06-15T21:14:05.276,78.61328125,-931.640625,-504.39453125,-65.91796875
1781532844.750979,2026-06-15T21:14:05.276,124.0234375,-955.56640625,-520.5078125,101.07421875
1781532844.754866,2026-06-15T21:14:05.276,146.484375,-486.328125,-227.05078125,239.74609375
1781532844.758753,2026-06-15T21:14:05.277,149.4140625,-40.0390625,-163.0859375,170.8984375
1781532844.762640,2026-06-15T21:14:05.277,140.13671875,-464.35546875,-358.88671875,26.85546875
1781532844.766527,2026-06-15T21:14:05.277,117.67578125,-728.02734375,-406.73828125,-52.734375
1781532844.770604,2026-06-15T21:14:05.277,136.71875,-369.62890625,-252.44140625,69.82421875
1781532844.774492,2026-06-15T21:14:05.277,170.8984375,-208.0078125,-224.12109375,235.83984375
1781532844.778379,2026-06-15T21:14:05.277,164.0625,-436.03515625,-301.26953125,209.9609375
1781532844.782266,2026-06-15T21:14:05.277,124.51171875,-530.76171875,-300.78125,52.24609375
1781532844.786153,2026-06-15T21:14:05.277,94.7265625,-482.91015625,-355.95703125,-38.0859375
1781532844.790040,2026-06-15T21:14:05.277,111.81640625,-721.6796875,-388.671875,64.94140625
1781532844.793927,2026-06-15T21:14:05.277,147.94921875,-913.0859375,-488.76953125,252.44140625
1781532844.797815,2026-06-15T21:14:05.277,139.6484375,-923.828125,-500.48828125,249.51171875
1781532844.801702,2026-06-15T21:14:05.277,113.76953125,-555.17578125,-266.6015625,69.82421875
1781532844.805589,2026-06-15T21:14:05.277,94.23828125,-429.6875,-338.37890625,-36.62109375
1781532844.809476,2026-06-15T21:14:05.277,101.5625,-699.21875,-392.578125,41.015625
1781532844.813364,2026-06-15T21:14:05.277,137.20703125,-449.21875,-235.83984375,213.37890625
1781532844.817418,2026-06-15T21:14:05.277,131.8359375,-99.609375,-191.89453125,228.515625
1781532844.821305,2026-06-15T21:14:05.277,95.21484375,-408.69140625,-334.47265625,64.453125
1781532844.825192,2026-06-15T21:14:05.277,76.66015625,-740.72265625,-429.6875,-57.12890625
1781532844.829080,2026-06-15T21:14:05.277,79.58984375,-610.3515625,-358.3984375,-7.32421875
1781532844.832967,2026-06-15T21:14:05.277,123.046875,-395.01953125,-279.296875,188.4765625
1781532844.836854,2026-06-15T21:14:05.277,138.671875,-609.86328125,-398.4375,258.30078125
1781532844.840741,2026-06-15T21:14:05.277,111.328125,-955.56640625,-513.18359375,107.421875
1781532844.844629,2026-06-15T21:14:05.277,84.9609375,-688.96484375,-349.12109375,-34.66796875
1781532844.848516,2026-06-15T21:14:05.277,77.63671875,-466.796875,-324.21875,-17.08984375
1781532844.852403,2026-06-15T21:14:05.277,89.84375,-660.15625,-381.8359375,161.1328125
1781532844.856290,2026-06-15T21:14:05.277,90.8203125,-538.0859375,-307.6171875,233.3984375
1781532844.860178,2026-06-15T21:14:05.277,73.2421875,-272.94921875,-261.71875,77.63671875
1781532844.864213,2026-06-15T21:14:05.277,41.9921875,-398.4375,-335.9375,-70.3125
1781532844.868100,2026-06-15T21:14:05.277,32.2265625,-730.95703125,-376.953125,-68.359375
1781532844.871988,2026-06-15T21:14:05.277,61.5234375,-622.0703125,-290.0390625,103.515625
1781532844.875875,2026-06-15T21:14:05.277,73.2421875,-194.82421875,-196.2890625,212.890625
1781532844.879762,2026-06-15T21:14:05.277,54.19921875,-292.48046875,-307.12890625,94.7265625
1781532844.883650,2026-06-15T21:14:05.277,37.59765625,-723.14453125,-444.82421875,-43.45703125
1781532844.887537,2026-06-15T21:14:05.277,35.64453125,-1000.0,-442.87109375,-64.453125
1781532844.891424,2026-06-15T21:14:05.277,57.6171875,-792.48046875,-326.171875,83.984375
1781532844.895311,2026-06-15T21:14:05.277,75.68359375,-441.40625,-264.6484375,203.125
1781532844.899199,2026-06-15T21:14:05.277,61.03515625,-681.640625,-397.4609375,118.65234375
1781532844.903086,2026-06-15T21:14:05.277,22.94921875,-768.06640625,-366.2109375,-41.015625
1781532844.906973,2026-06-15T21:14:05.277,7.32421875,-600.5859375,-353.515625,-103.02734375
1781532844.911136,2026-06-15T21:14:05.277,45.8984375,-666.015625,-357.91015625,50.78125
1781532844.915024,2026-06-15T21:14:05.277,81.0546875,-592.7734375,-290.0390625,190.91796875
1781532844.918911,2026-06-15T21:14:05.277,62.01171875,-355.95703125,-265.13671875,104.4921875
1781532844.922798,2026-06-15T21:14:05.277,35.64453125,-338.37890625,-296.875,-50.29296875
1781532844.926686,2026-06-15T21:14:05.277,19.04296875,-643.5546875,-406.73828125,-110.3515625
1781532844.930573,2026-06-15T21:14:05.277,32.71484375,-907.71484375,-459.47265625,20.99609375
1781532844.934460,2026-06-15T21:14:05.277,67.3828125,-610.83984375,-297.8515625,186.03515625
1781532844.938348,2026-06-15T21:14:05.277,64.453125,-231.93359375,-177.24609375,140.13671875
1781532844.942235,2026-06-15T21:14:05.277,39.0625,-547.8515625,-412.109375,-20.5078125
1781532844.946122,2026-06-15T21:14:05.277,24.90234375,-939.94140625,-581.54296875,-93.75
1781532844.950010,2026-06-15T21:14:05.277,45.8984375,-586.42578125,-291.50390625,10.7421875
1781532844.953897,2026-06-15T21:14:05.277,82.03125,-208.49609375,-186.03515625,170.41015625
1781532844.958038,2026-06-15T21:14:05.277,78.125,-471.6796875,-275.390625,151.85546875
1781532844.961925,2026-06-15T21:14:05.277,41.015625,-652.34375,-309.5703125,-7.8125
1781532844.965812,2026-06-15T21:14:05.277,18.06640625,-486.81640625,-326.66015625,-105.95703125
1781532844.969700,2026-06-15T21:14:05.277,39.0625,-652.83203125,-383.30078125,-5.859375
1781532844.973587,2026-06-15T21:14:05.277,72.265625,-709.47265625,-352.05078125,166.9921875
1781532844.977475,2026-06-15T21:14:05.277,65.91796875,-674.8046875,-342.7734375,165.0390625
1781532844.981362,2026-06-15T21:14:05.277,28.80859375,-759.765625,-373.046875,-0.48828125
1781532844.985250,2026-06-15T21:14:05.277,2.44140625,-861.328125,-394.04296875,-118.65234375
1781532844.989137,2026-06-15T21:14:05.277,8.7890625,-1000.0,-524.90234375,-45.41015625
1781532844.993025,2026-06-15T21:14:05.277,48.828125,-700.68359375,-392.578125,131.8359375
1781532844.996912,2026-06-15T21:14:05.277,62.01171875,-141.6015625,-159.66796875,160.15625
1781532845.000799,2026-06-15T21:14:05.277,25.390625,-327.1484375,-312.98828125,16.11328125
1781532845.004920,2026-06-15T21:14:05.277,3.90625,-747.0703125,-421.875,-108.88671875
1781532845.008807,2026-06-15T21:14:05.277,16.6015625,-628.41796875,-331.54296875,-72.265625
1781532845.012695,2026-06-15T21:14:05.277,46.38671875,-233.88671875,-208.49609375,104.98046875
1781532845.016582,2026-06-15T21:14:05.277,53.7109375,-285.64453125,-263.671875,174.8046875
1781532845.020470,2026-06-15T21:14:05.277,28.3203125,-550.78125,-378.90625,38.0859375
1781532845.024358,2026-06-15T21:14:05.277,3.41796875,-738.28125,-424.8046875,-97.65625
1781532845.028245,2026-06-15T21:14:05.277,1.46484375,-876.953125,-410.15625,-85.44921875
1781532845.032132,2026-06-15T21:14:05.277,46.38671875,-866.69921875,-440.4296875,94.23828125
1781532845.036020,2026-06-15T21:14:05.277,68.359375,-867.67578125,-455.56640625,196.77734375
1781532845.039907,2026-06-15T21:14:05.277,34.1796875,-493.1640625,-258.7890625,43.9453125
1781532845.043795,2026-06-15T21:14:05.277,-0.48828125,-389.6484375,-308.59375,-111.328125
1781532845.047683,2026-06-15T21:14:05.277,-7.32421875,-715.8203125,-386.71875,-111.81640625
1781532845.051788,2026-06-15T21:14:05.277,28.80859375,-541.50390625,-266.11328125,52.734375
1781532845.055676,2026-06-15T21:14:05.277,59.08203125,-138.671875,-174.31640625,180.17578125
1781532845.059563,2026-06-15T21:14:05.277,55.17578125,-190.4296875,-267.08984375,90.33203125
1781532845.063451,2026-06-15T21:14:05.277,20.5078125,-581.0546875,-358.88671875,-79.58984375
1781532845.067338,2026-06-15T21:14:05.277,-15.625,-759.27734375,-393.5546875,-132.32421875
1781532845.071226,2026-06-15T21:14:05.277,19.04296875,-710.44921875,-398.92578125,42.48046875
1781532845.075113,2026-06-15T21:14:05.277,51.7578125,-674.31640625,-305.17578125,168.9453125
1781532845.079001,2026-06-15T21:14:05.277,31.73828125,-851.07421875,-500.0,79.1015625
1781532845.082888,2026-06-15T21:14:05.277,3.90625,-872.55859375,-524.4140625,-75.1953125
1781532845.086776,2026-06-15T21:14:05.277,-19.04296875,-693.84765625,-341.796875,-141.6015625
1781532845.090664,2026-06-15T21:14:05.277,22.4609375,-657.2265625,-345.703125,22.94921875
1781532845.094551,2026-06-15T21:14:05.277,59.5703125,-462.890625,-265.13671875,177.24609375
1781532845.098636,2026-06-15T21:14:05.277,44.43359375,-286.1328125,-232.91015625,99.609375
1781532845.102523,2026-06-15T21:14:05.277,31.73828125,-336.9140625,-291.015625,-54.19921875
1781532845.106411,2026-06-15T21:14:05.277,24.4140625,-653.3203125,-400.390625,-116.2109375
1781532845.110299,2026-06-15T21:14:05.277,44.43359375,-693.84765625,-361.81640625,12.6953125
1781532845.114186,2026-06-15T21:14:05.277,65.4296875,-296.38671875,-219.23828125,173.828125
1781532845.118074,2026-06-15T21:14:05.277,53.7109375,-403.3203125,-282.2265625,142.08984375
1781532845.121961,2026-06-15T21:14:05.277,24.4140625,-848.14453125,-478.515625,-29.296875
1781532845.125849,2026-06-15T21:14:05.277,4.39453125,-949.70703125,-539.55078125,-115.72265625
1781532845.129737,2026-06-15T21:14:05.277,27.34375,-568.359375,-272.4609375,-11.23046875
1781532845.133624,2026-06-15T21:14:05.277,62.5,-174.31640625,-187.5,146.484375
1781532845.137512,2026-06-15T21:14:05.277,58.10546875,-410.15625,-285.15625,145.5078125
1781532845.141400,2026-06-15T21:14:05.277,28.80859375,-625.48828125,-333.984375,-11.23046875
1781532845.145466,2026-06-15T21:14:05.277,13.18359375,-627.9296875,-344.7265625,-109.375
1781532845.149354,2026-06-15T21:14:05.277,27.83203125,-562.5,-324.21875,-22.94921875
1781532845.153242,2026-06-15T21:14:05.277,53.22265625,-479.4921875,-262.6953125,153.80859375
1781532845.157129,2026-06-15T21:14:05.277,43.45703125,-381.8359375,-207.03125,157.2265625
1781532845.161017,2026-06-15T21:14:05.277,16.11328125,-366.2109375,-311.03515625,-10.7421875
1781532845.164905,2026-06-15T21:14:05.277,-6.34765625,-746.58203125,-429.19921875,-115.72265625
1781532845.168792,2026-06-15T21:14:05.277,9.27734375,-981.93359375,-542.96875,-43.45703125
1781532845.172680,2026-06-15T21:14:05.277,42.96875,-834.47265625,-459.9609375,136.23046875
1781532845.176568,2026-06-15T21:14:05.277,35.64453125,-262.6953125,-166.50390625,171.875
1781532845.180455,2026-06-15T21:14:05.277,10.7421875,-315.4296875,-291.50390625,21.97265625
1781532845.184343,2026-06-15T21:14:05.277,1.953125,-687.01171875,-405.76171875,-96.19140625
1781532845.188231,2026-06-15T21:14:05.277,6.34765625,-537.59765625,-308.10546875,-67.3828125
1781532845.192283,2026-06-15T21:14:06.121,32.71484375,-266.11328125,-222.16796875,101.07421875
1781532845.196171,2026-06-15T21:14:06.121,46.38671875,-306.640625,-263.18359375,187.01171875
1781532845.200059,2026-06-15T21:14:06.121,21.484375,-604.98046875,-363.28125,51.7578125
1781532845.203946,2026-06-15T21:14:06.121,4.8828125,-761.23046875,-391.11328125,-96.6796875
1781532845.207834,2026-06-15T21:14:06.121,7.32421875,-680.17578125,-367.1875,-107.421875
1781532845.211722,2026-06-15T21:14:06.121,32.71484375,-707.03125,-400.87890625,64.453125
1781532845.215610,2026-06-15T21:14:06.121,52.24609375,-900.390625,-429.6875,183.10546875
1781532845.219497,2026-06-15T21:14:06.121,34.1796875,-614.2578125,-291.9921875,39.0625
1781532845.223385,2026-06-15T21:14:06.121,0.48828125,-364.74609375,-269.53125,-118.65234375
1781532845.227273,2026-06-15T21:14:06.121,-19.53125,-683.59375,-446.2890625,-125.0
1781532845.231160,2026-06-15T21:14:06.121,16.11328125,-733.3984375,-433.10546875,40.0390625
1781532845.235048,2026-06-15T21:14:06.121,40.52734375,-208.0078125,-181.15234375,161.1328125
1781532845.239083,2026-06-15T21:14:06.121,18.06640625,-208.49609375,-269.04296875,59.08203125
1781532845.242971,2026-06-15T21:14:06.121,-8.30078125,-647.94921875,-379.39453125,-89.84375
1781532845.246859,2026-06-15T21:14:06.121,-28.80859375,-719.23828125,-346.19140625,-135.7421875
1781532845.250746,2026-06-15T21:14:06.121,-1.953125,-383.7890625,-249.51171875,4.39453125
1781532845.254634,2026-06-15T21:14:06.121,34.1796875,-235.83984375,-246.09375,150.390625
1781532845.258522,2026-06-15T21:14:06.121,17.578125,-605.46875,-367.1875,82.51953125
1781532845.262409,2026-06-15T21:14:06.121,-11.71875,-911.62109375,-416.9921875,-85.44921875
1781532845.266297,2026-06-15T21:14:06.121,-9.765625,-918.9453125,-449.70703125,-149.4140625
1781532845.270185,2026-06-15T21:14:06.121,7.32421875,-806.15234375,-369.140625,-7.32421875
1781532845.274073,2026-06-15T21:14:06.121,23.4375,-839.84375,-437.5,166.9921875
1781532845.277961,2026-06-15T21:14:06.121,24.4140625,-787.109375,-422.36328125,126.46484375
1781532845.281848,2026-06-15T21:14:06.121,-0.9765625,-432.12890625,-269.04296875,-51.26953125
1781532845.286002,2026-06-15T21:14:06.121,-25.390625,-572.265625,-370.60546875,-145.99609375
1781532845.289890,2026-06-15T21:14:06.121,-4.39453125,-687.5,-354.00390625,-43.45703125
1781532845.293777,2026-06-15T21:14:06.121,34.1796875,-374.51171875,-232.421875,125.9765625
1781532845.297665,2026-06-15T21:14:06.121,34.66796875,-237.3046875,-229.98046875,114.74609375
1781532845.301553,2026-06-15T21:14:06.121,8.7890625,-522.4609375,-366.69921875,-48.828125
1781532845.305441,2026-06-15T21:14:06.121,-17.08984375,-938.96484375,-502.44140625,-150.390625
1781532845.309329,2026-06-15T21:14:06.121,-20.5078125,-814.94140625,-365.72265625,-66.89453125
1781532845.313216,2026-06-15T21:14:06.121,19.04296875,-258.7890625,-176.7578125,106.93359375
1781532845.317104,2026-06-15T21:14:06.121,35.15625,-461.9140625,-384.27734375,130.859375
1781532845.320992,2026-06-15T21:14:06.121,3.41796875,-946.77734375,-549.8046875,-20.99609375
1781532845.324880,2026-06-15T21:14:06.121,-20.5078125,-679.6875,-326.171875,-149.4140625
1781532845.328768,2026-06-15T21:14:06.121,-15.13671875,-542.96875,-338.37890625,-87.890625
1781532845.332903,2026-06-15T21:14:06.121,12.20703125,-576.171875,-282.2265625,86.42578125
1781532845.336791,2026-06-15T21:14:06.121,20.99609375,-443.84765625,-232.421875,123.046875
1781532845.340679,2026-06-15T21:14:06.121,6.34765625,-299.31640625,-264.6484375,-12.6953125
1781532845.344567,2026-06-15T21:14:06.121,-17.08984375,-410.64453125,-328.61328125,-120.1171875
1781532845.348454,2026-06-15T21:14:06.121,-20.99609375,-681.15234375,-377.9296875,-96.6796875
1781532845.352342,2026-06-15T21:14:06.121,6.34765625,-731.4453125,-337.890625,61.03515625
1781532845.356230,2026-06-15T21:14:06.121,29.296875,-642.08984375,-323.73046875,138.18359375
1781532845.360118,2026-06-15T21:14:06.121,14.16015625,-665.0390625,-315.91796875,1.953125
1781532845.364006,2026-06-15T21:14:06.121,-17.578125,-901.85546875,-551.26953125,-133.30078125
1781532845.367894,2026-06-15T21:14:06.121,-17.578125,-871.58203125,-545.41015625,-113.28125
1781532845.371782,2026-06-15T21:14:06.121,13.18359375,-313.96484375,-207.51953125,48.828125
1781532845.375670,2026-06-15T21:14:06.121,30.76171875,-247.0703125,-246.58203125,148.92578125
1781532845.379785,2026-06-15T21:14:06.121,2.9296875,-671.875,-360.83984375,18.06640625
1781532845.383673,2026-06-15T21:14:06.121,-25.390625,-642.08984375,-325.68359375,-135.7421875
1781532845.387561,2026-06-15T21:14:06.121,-23.92578125,-425.78125,-301.26953125,-143.06640625
1781532845.391449,2026-06-15T21:14:06.121,8.30078125,-463.8671875,-304.19921875,26.85546875
1781532845.395337,2026-06-15T21:14:06.121,28.3203125,-575.1953125,-340.33203125,143.5546875
1781532845.399225,2026-06-15T21:14:06.121,17.08984375,-652.83203125,-397.4609375,32.2265625
1781532845.403112,2026-06-15T21:14:06.121,-5.859375,-672.36328125,-348.6328125,-125.0
1781532845.407001,2026-06-15T21:14:06.121,-25.87890625,-782.71484375,-435.546875,-155.76171875
1781532845.410888,2026-06-15T21:14:06.121,5.37109375,-894.04296875,-488.28125,25.390625
1781532845.414776,2026-06-15T21:14:06.121,31.25,-459.9609375,-221.6796875,153.3203125
1781532845.418664,2026-06-15T21:14:06.121,8.30078125,-243.1640625,-244.140625,53.7109375
1781532845.422552,2026-06-15T21:14:06.121,-20.99609375,-606.4453125,-358.3984375,-91.796875
1781532845.426652,2026-06-15T21:14:06.121,-45.41015625,-744.62890625,-372.0703125,-149.90234375
1781532845.430540,2026-06-15T21:14:06.121,-18.06640625,-427.734375,-261.71875,-13.671875
1781532845.434428,2026-06-15T21:14:06.121,16.11328125,-306.15234375,-248.046875,127.44140625
1781532845.438316,2026-06-15T21:14:06.121,0.48828125,-601.5625,-335.44921875,67.87109375
1781532845.442204,2026-06-15T21:14:06.121,-13.18359375,-650.87890625,-328.125,-75.68359375
1781532845.446092,2026-06-15T21:14:06.121,-20.99609375,-743.65234375,-435.05859375,-149.90234375
1781532845.449980,2026-06-15T21:14:06.121,-8.7890625,-834.9609375,-392.578125,-31.73828125
1781532845.453868,2026-06-15T21:14:06.121,33.69140625,-870.60546875,-462.890625,141.11328125
1781532845.457756,2026-06-15T21:14:06.121,31.73828125,-784.66796875,-451.66015625,110.3515625
1781532845.461644,2026-06-15T21:14:06.121,5.859375,-367.1875,-246.58203125,-56.15234375
1781532845.465532,2026-06-15T21:14:06.121,-8.7890625,-496.58203125,-350.5859375,-144.53125
1781532845.469420,2026-06-15T21:14:06.121,1.953125,-666.015625,-366.2109375,-38.0859375
1781532845.473503,2026-06-15T21:14:06.121,42.96875,-439.453125,-237.79296875,135.7421875
1781532845.477391,2026-06-15T21:14:06.121,31.73828125,-212.40234375,-207.03125,124.0234375
1781532845.481279,2026-06-15T21:14:06.121,-0.48828125,-434.08203125,-341.30859375,-44.921875
1781532845.485167,2026-06-15T21:14:06.121,-9.765625,-689.94140625,-397.94921875,-145.99609375
1781532845.489055,2026-06-15T21:14:06.121,-1.953125,-538.0859375,-336.42578125,-56.640625
1781532845.492943,2026-06-15T21:14:06.121,42.48046875,-574.70703125,-331.0546875,124.0234375
1781532845.496831,2026-06-15T21:14:06.121,45.8984375,-783.203125,-425.29296875,138.671875
1781532845.500719,2026-06-15T21:14:06.121,10.25390625,-945.80078125,-530.76171875,-16.6015625
1781532845.504607,2026-06-15T21:14:06.121,-9.27734375,-691.40625,-359.86328125,-146.484375
1781532845.508495,2026-06-15T21:14:06.122,0.48828125,-362.3046875,-273.92578125,-103.515625
1781532845.512383,2026-06-15T21:14:06.122,30.76171875,-501.953125,-303.22265625,82.51953125
1781532845.516271,2026-06-15T21:14:06.122,46.875,-499.0234375,-300.29296875,144.53125
1781532845.520334,2026-06-15T21:14:06.122,24.90234375,-266.6015625,-264.16015625,-5.37109375
1781532845.524223,2026-06-15T21:14:06.122,-9.765625,-396.484375,-332.03125,-143.06640625
1781532845.528111,2026-06-15T21:14:06.122,-18.06640625,-677.734375,-368.65234375,-109.375
1781532845.531999,2026-06-15T21:14:06.122,24.90234375,-529.78515625,-241.2109375,85.9375
1781532845.535887,2026-06-15T21:14:06.122,50.78125,-218.26171875,-227.5390625,153.80859375
1781532845.539775,2026-06-15T21:14:06.122,20.99609375,-528.80859375,-330.078125,-0.48828125
1781532845.543663,2026-06-15T21:14:06.122,-11.23046875,-922.36328125,-568.84765625,-114.2578125
1781532845.547551,2026-06-15T21:14:06.122,-21.484375,-970.703125,-579.58984375,-99.12109375
1781532845.551439,2026-06-15T21:14:06.122,11.71875,-558.10546875,-240.234375,58.10546875
1781532845.555327,2026-06-15T21:14:06.122,44.921875,-431.640625,-277.34375,162.59765625
1781532845.559216,2026-06-15T21:14:06.122,31.25,-593.75,-332.03125,44.921875
1781532845.563103,2026-06-15T21:14:06.122,5.37109375,-497.0703125,-316.40625,-96.19140625
1781532845.567154,2026-06-15T21:14:06.122,-12.6953125,-433.10546875,-314.453125,-119.140625
1781532845.571042,2026-06-15T21:14:06.122,6.8359375,-491.2109375,-302.24609375,33.203125
1781532845.574930,2026-06-15T21:14:06.122,39.55078125,-522.94921875,-307.12890625,157.71484375
1781532845.578818,2026-06-15T21:14:06.122,15.13671875,-305.17578125,-241.2109375,49.8046875
1781532845.582706,2026-06-15T21:14:06.122,-21.97265625,-359.375,-286.62109375,-102.05078125
1781532845.586595,2026-06-15T21:14:06.122,-20.5078125,-801.7578125,-478.02734375,-120.1171875
1781532845.590483,2026-06-15T21:14:06.122,6.8359375,-960.44921875,-475.09765625,37.59765625
1781532845.594371,2026-06-15T21:14:06.122,29.78515625,-479.4921875,-221.6796875,154.78515625
1781532845.598259,2026-06-15T21:14:06.122,19.04296875,-189.453125,-226.5625,69.82421875
1781532845.602147,2026-06-15T21:14:06.122,-9.765625,-579.58984375,-392.08984375,-74.21875
1781532845.606035,2026-06-15T21:14:06.122,-16.6015625,-779.78515625,-421.38671875,-136.71875
1781532845.609923,2026-06-15T21:14:06.122,6.34765625,-489.74609375,-289.0625,-16.6015625
1781532845.613957,2026-06-15T21:14:06.122,19.04296875,-491.69921875,-299.31640625,136.23046875
1781532845.617845,2026-06-15T21:14:06.122,20.99609375,-656.73828125,-327.63671875,95.21484375
1781532845.621733,2026-06-15T21:14:06.122,3.90625,-595.21484375,-299.31640625,-70.3125
1781532845.625621,2026-06-15T21:14:06.122,-43.45703125,-487.3046875,-327.63671875,-169.43359375
1781532845.629509,2026-06-15T21:14:06.122,-35.64453125,-492.1875,-310.05859375,-56.15234375
1781532845.633398,2026-06-15T21:14:06.122,15.625,-653.80859375,-326.171875,118.65234375
1781532845.637286,2026-06-15T21:14:06.122,15.625,-798.828125,-381.34765625,92.28515625
1781532845.641174,2026-06-15T21:14:06.122,-2.44140625,-760.7421875,-344.7265625,-67.3828125
1781532845.645062,2026-06-15T21:14:06.122,-23.4375,-642.578125,-350.09765625,-170.8984375
1781532845.648950,2026-06-15T21:14:06.122,-9.27734375,-803.22265625,-438.96484375,-63.96484375
1781532845.652838,2026-06-15T21:14:06.122,34.66796875,-587.40234375,-264.6484375,124.51171875
1781532845.656726,2026-06-15T21:14:06.122,32.71484375,-120.1171875,-164.55078125,117.1875
1781532845.660874,2026-06-15T21:14:06.122,2.44140625,-354.98046875,-306.15234375,-39.0625
1781532845.664762,2026-06-15T21:14:06.122,-16.11328125,-665.0390625,-389.16015625,-148.92578125
1781532845.668651,2026-06-15T21:14:06.122,-5.859375,-604.98046875,-337.40234375,-73.73046875
1781532845.672539,2026-06-15T21:14:06.122,29.78515625,-507.32421875,-259.27734375,118.65234375
1781532845.676427,2026-06-15T21:14:06.122,52.734375,-498.046875,-291.9921875,163.57421875
1781532845.680315,2026-06-15T21:14:06.122,31.73828125,-834.47265625,-432.12890625,21.484375
1781532845.684204,2026-06-15T21:14:06.122,-1.953125,-797.36328125,-363.28125,-112.79296875
1781532845.688092,2026-06-15T21:14:06.122,-5.37109375,-428.7109375,-243.65234375,-84.9609375
1781532845.691980,2026-06-15T21:14:06.122,40.0390625,-583.49609375,-368.1640625,117.1875
1781532845.695868,2026-06-15T21:14:06.122,53.7109375,-770.99609375,-438.96484375,180.17578125
1781532845.699757,2026-06-15T21:14:06.122,21.97265625,-399.4140625,-247.0703125,8.7890625
1781532845.703645,2026-06-15T21:14:06.122,1.953125,-338.8671875,-305.17578125,-125.9765625
1781532845.707777,2026-06-15T21:14:06.122,-9.27734375,-683.59375,-346.19140625,-105.46875
1781532845.711665,2026-06-15T21:14:06.122,20.99609375,-560.05859375,-255.859375,72.75390625
1781532845.715553,2026-06-15T21:14:06.122,41.015625,-157.2265625,-181.15234375,161.62109375
1781532845.719442,2026-06-15T21:14:06.122,16.11328125,-261.71875,-265.625,30.2734375
1781532845.723330,2026-06-15T21:14:06.122,-16.11328125,-712.40234375,-433.10546875,-110.3515625
1781532845.727218,2026-06-15T21:14:06.122,-24.90234375,-1000.0,-464.35546875,-118.65234375
1781532845.731107,2026-06-15T21:14:06.122,3.90625,-847.16796875,-352.05078125,46.38671875
1781532845.734995,2026-06-15T21:14:06.122,33.69140625,-666.9921875,-277.34375,154.296875
1781532845.738883,2026-06-15T21:14:06.122,24.90234375,-879.8828125,-503.41796875,58.59375
1781532845.742771,2026-06-15T21:14:06.122,-0.48828125,-859.86328125,-506.8359375,-83.984375
1781532845.746660,2026-06-15T21:14:06.122,-14.6484375,-555.6640625,-306.640625,-142.578125
1781532845.750548,2026-06-15T21:14:06.122,20.5078125,-625.48828125,-351.07421875,15.13671875
1781532845.754660,2026-06-15T21:14:06.122,52.24609375,-513.18359375,-258.30078125,163.0859375
1781532845.758549,2026-06-15T21:14:06.122,24.4140625,-264.6484375,-218.26171875,61.03515625
1781532845.762437,2026-06-15T21:14:06.122,-2.9296875,-284.1796875,-270.01953125,-97.65625
1781532845.766325,2026-06-15T21:14:06.122,-26.3671875,-598.6328125,-367.67578125,-150.87890625
1781532845.770214,2026-06-15T21:14:06.122,-14.16015625,-688.4765625,-362.79296875,-13.18359375
1781532845.774102,2026-06-15T21:14:06.122,18.06640625,-547.8515625,-311.03515625,141.6015625
1781532845.777990,2026-06-15T21:14:06.122,16.6015625,-514.16015625,-275.390625,71.77734375
1781532845.781879,2026-06-15T21:14:06.122,-6.34765625,-611.81640625,-389.6484375,-89.84375
1781532845.785767,2026-06-15T21:14:06.122,-34.66796875,-966.30859375,-595.703125,-146.97265625
1781532845.789655,2026-06-15T21:14:06.122,-14.6484375,-799.31640625,-331.54296875,-19.53125
1781532845.793544,2026-06-15T21:14:06.122,26.85546875,-257.32421875,-164.55078125,130.37109375
1781532845.797432,2026-06-15T21:14:06.122,24.90234375,-372.0703125,-293.45703125,92.28515625
1781532845.801527,2026-06-15T21:14:06.122,5.37109375,-598.14453125,-359.86328125,-63.96484375
1781532845.805415,2026-06-15T21:14:06.122,-25.87890625,-388.18359375,-285.15625,-156.25
1781532845.809304,2026-06-15T21:14:06.122,-25.87890625,-389.6484375,-283.203125,-54.6875
1781532845.813192,2026-06-15T21:14:06.122,18.06640625,-467.28515625,-252.9296875,127.44140625
1781532845.817081,2026-06-15T21:14:06.122,23.92578125,-420.41015625,-261.23046875,129.39453125
1781532845.820969,2026-06-15T21:14:06.122,-5.37109375,-586.9140625,-382.8125,-41.015625
1781532845.824857,2026-06-15T21:14:06.122,-36.1328125,-888.18359375,-432.12890625,-157.71484375
1781532845.828746,2026-06-15T21:14:06.122,-25.390625,-1000.0,-517.08984375,-61.5234375
1781532845.832634,2026-06-15T21:14:06.122,20.99609375,-710.44921875,-387.20703125,123.046875
1781532845.836523,2026-06-15T21:14:06.122,37.59765625,-210.44921875,-179.6875,133.7890625
1781532845.840411,2026-06-15T21:14:06.122,21.484375,-328.125,-289.55078125,-20.01953125
1781532845.844300,2026-06-15T21:14:06.122,-4.8828125,-778.80859375,-427.734375,-135.7421875
1781532845.848379,2026-06-15T21:14:06.122,-4.8828125,-830.56640625,-368.1640625,-78.125
1781532845.852267,2026-06-15T21:14:06.122,36.1328125,-360.83984375,-197.75390625,104.00390625
1781532845.856156,2026-06-15T21:14:06.122,36.62109375,-267.08984375,-259.765625,152.83203125
1781532845.860044,2026-06-15T21:14:06.122,-4.39453125,-750.48828125,-409.66796875,-10.7421875
1781532845.863933,2026-06-15T21:14:06.122,-27.83203125,-745.60546875,-355.46875,-146.484375
1781532845.867821,2026-06-15T21:14:06.122,-22.94921875,-674.31640625,-357.421875,-113.76953125
1781532845.871709,2026-06-15T21:14:06.122,14.16015625,-819.3359375,-422.8515625,66.89453125
1781532845.875598,2026-06-15T21:14:06.122,32.71484375,-869.140625,-412.109375,156.73828125
1781532845.879486,2026-06-15T21:14:06.122,1.953125,-550.78125,-259.27734375,13.18359375
1781532845.883375,2026-06-15T21:14:06.122,-10.7421875,-357.91015625,-296.38671875,-115.234375
1781532845.887263,2026-06-15T21:14:06.122,-15.625,-664.0625,-367.1875,-109.86328125
1781532845.891152,2026-06-15T21:14:06.122,6.8359375,-588.8671875,-300.29296875,50.78125
1781532845.895213,2026-06-15T21:14:06.122,40.0390625,-231.4453125,-208.49609375,156.73828125
1781532845.899101,2026-06-15T21:14:06.122,21.484375,-229.98046875,-248.046875,26.85546875
1781532845.902990,2026-06-15T21:14:06.122,-18.06640625,-669.43359375,-394.53125,-118.65234375
1781532845.906878,2026-06-15T21:14:06.122,-34.66796875,-895.01953125,-395.01953125,-131.34765625
1781532845.910767,2026-06-15T21:14:06.122,-5.859375,-490.234375,-275.390625,33.69140625
1781532845.914655,2026-06-15T21:14:06.122,19.53125,-467.7734375,-317.87109375,140.625
1781532845.918544,2026-06-15T21:14:06.122,5.37109375,-831.0546875,-452.63671875,36.62109375
1781532845.922432,2026-06-15T21:14:06.122,-15.13671875,-859.375,-422.8515625,-101.07421875
1781532845.926321,2026-06-15T21:14:07.006,-30.76171875,-528.80859375,-287.109375,-150.87890625
1781532845.930209,2026-06-15T21:14:07.006,-5.859375,-362.3046875,-293.9453125,-5.37109375
1781532845.934098,2026-06-15T21:14:07.006,29.78515625,-644.04296875,-335.9375,147.94921875
1781532845.937986,2026-06-15T21:14:07.006,20.99609375,-581.0546875,-270.01953125,79.58984375
1781532845.942032,2026-06-15T21:14:07.006,-5.37109375,-330.56640625,-265.13671875,-89.35546875
1781532845.945920,2026-06-15T21:14:07.006,-22.4609375,-614.2578125,-380.859375,-155.2734375
1781532845.949809,2026-06-15T21:14:07.006,2.44140625,-677.734375,-340.8203125,-14.6484375
1781532845.953697,2026-06-15T21:14:07.006,26.85546875,-331.54296875,-204.58984375,142.08984375
1781532845.957586,2026-06-15T21:14:07.006,14.6484375,-261.71875,-248.046875,93.26171875
1781532845.961474,2026-06-15T21:14:07.006,-0.48828125,-706.54296875,-437.98828125,-63.96484375
1781532845.965363,2026-06-15T21:14:07.006,-14.6484375,-1000.0,-554.19921875,-150.87890625
1781532845.969251,2026-06-15T21:14:07.006,-2.9296875,-824.70703125,-365.234375,-58.10546875
1781532845.973140,2026-06-15T21:14:07.006,27.83203125,-306.640625,-172.36328125,106.93359375
1781532845.977028,2026-06-15T21:14:07.006,24.90234375,-397.94921875,-327.63671875,105.95703125
1781532845.980917,2026-06-15T21:14:07.006,3.90625,-713.37890625,-435.05859375,-52.24609375
1781532845.984806,2026-06-15T21:14:07.006,-18.06640625,-473.6328125,-309.08203125,-149.90234375
1781532845.988838,2026-06-15T21:14:07.006,-11.23046875,-370.1171875,-282.2265625,-55.6640625
1781532845.992727,2026-06-15T21:14:07.006,19.53125,-503.90625,-255.859375,115.72265625
1781532845.996615,2026-06-15T21:14:07.006,23.92578125,-438.4765625,-239.74609375,123.046875
1781532846.000504,2026-06-15T21:14:07.006,-2.9296875,-333.984375,-260.25390625,-41.50390625
1781532846.004392,2026-06-15T21:14:07.006,-38.0859375,-524.4140625,-360.3515625,-160.15625
1781532846.008281,2026-06-15T21:14:07.006,-43.45703125,-803.22265625,-446.2890625,-80.078125
1781532846.012169,2026-06-15T21:14:07.006,-8.30078125,-847.16796875,-348.14453125,102.05078125
1781532846.016058,2026-06-15T21:14:07.006,28.80859375,-566.40625,-238.76953125,133.30078125
1781532846.019947,2026-06-15T21:14:07.006,30.76171875,-481.93359375,-299.31640625,-5.859375
1781532846.023835,2026-06-15T21:14:07.006,-12.6953125,-784.66796875,-449.21875,-123.046875
1781532846.027724,2026-06-15T21:14:07.006,-27.83203125,-671.38671875,-321.2890625,-97.16796875
1781532846.031612,2026-06-15T21:14:07.006,4.8828125,-255.859375,-199.70703125,70.3125
1781532846.035754,2026-06-15T21:14:07.006,16.11328125,-272.94921875,-249.0234375,137.20703125
1781532846.039643,2026-06-15T21:14:07.006,-0.48828125,-577.1484375,-330.078125,-1.953125
1781532846.043532,2026-06-15T21:14:07.006,-25.87890625,-567.3828125,-328.125,-139.6484375
1781532846.047420,2026-06-15T21:14:07.006,-29.78515625,-430.17578125,-290.0390625,-121.58203125
1781532846.051309,2026-06-15T21:14:07.006,3.90625,-481.4453125,-312.01171875,64.453125
1781532846.055197,2026-06-15T21:14:07.006,24.4140625,-745.60546875,-375.48828125,159.66796875
1781532846.059086,2026-06-15T21:14:07.006,3.90625,-720.21484375,-339.84375,22.4609375
1781532846.062975,2026-06-15T21:14:07.006,-20.01953125,-471.19140625,-285.64453125,-121.09375
1781532846.066863,2026-06-15T21:14:07.006,-34.66796875,-704.1015625,-462.890625,-132.32421875
1781532846.070752,2026-06-15T21:14:07.006,-0.48828125,-935.546875,-512.6953125,43.9453125
1781532846.074641,2026-06-15T21:14:07.006,22.94921875,-449.70703125,-195.3125,152.83203125
1781532846.078529,2026-06-15T21:14:07.006,1.953125,-298.828125,-271.484375,29.78515625
1781532846.082656,2026-06-15T21:14:07.006,-20.01953125,-734.375,-394.53125,-116.2109375
1781532846.086545,2026-06-15T21:14:07.006,-24.90234375,-745.1171875,-327.1484375,-146.484375
1781532846.090433,2026-06-15T21:14:07.006,3.41796875,-370.60546875,-245.60546875,3.90625
1781532846.094322,2026-06-15T21:14:07.006,30.76171875,-229.98046875,-239.2578125,140.625
1781532846.098211,2026-06-15T21:14:07.006,14.6484375,-554.6875,-351.5625,52.734375
1781532846.102099,2026-06-15T21:14:07.006,-13.18359375,-894.53125,-431.15234375,-110.3515625
1781532846.105988,2026-06-15T21:14:07.006,-27.34375,-935.546875,-429.19921875,-166.9921875
1781532846.109877,2026-06-15T21:14:07.006,-11.23046875,-763.18359375,-313.4765625,-21.97265625
1781532846.113765,2026-06-15T21:14:07.006,15.13671875,-826.66015625,-433.59375,136.71875
1781532846.117654,2026-06-15T21:14:07.006,3.41796875,-821.77734375,-455.56640625,69.82421875
1781532846.121543,2026-06-15T21:14:07.006,-23.92578125,-382.8125,-228.515625,-94.23828125
1781532846.125432,2026-06-15T21:14:07.006,-44.921875,-500.9765625,-352.5390625,-159.66796875
1781532846.129540,2026-06-15T21:14:07.006,-17.578125,-656.73828125,-345.21484375,-31.25
1781532846.133429,2026-06-15T21:14:07.006,26.85546875,-333.984375,-191.89453125,133.30078125
1781532846.137318,2026-06-15T21:14:07.006,28.3203125,-250.48828125,-274.90234375,96.19140625
1781532846.141207,2026-06-15T21:14:07.006,9.27734375,-639.16015625,-419.921875,-55.6640625
1781532846.145095,2026-06-15T21:14:07.006,-10.25390625,-820.3125,-430.6640625,-139.6484375
1781532846.148984,2026-06-15T21:14:07.006,-7.32421875,-795.8984375,-392.08984375,-41.015625
1781532846.152873,2026-06-15T21:14:07.006,24.90234375,-530.76171875,-245.60546875,120.1171875
1781532846.156761,2026-06-15T21:14:07.006,39.0625,-502.9296875,-349.609375,126.46484375
1781532846.160650,2026-06-15T21:14:07.006,13.671875,-937.01171875,-521.97265625,-14.6484375
1781532846.164539,2026-06-15T21:14:07.006,-18.5546875,-626.46484375,-296.875,-143.06640625
1781532846.168428,2026-06-15T21:14:07.006,-11.71875,-341.796875,-273.92578125,-71.77734375
1781532846.172316,2026-06-15T21:14:07.006,30.2734375,-560.546875,-321.2890625,119.140625
1781532846.176408,2026-06-15T21:14:07.006,35.64453125,-521.97265625,-286.1328125,125.0
1781532846.180297,2026-06-15T21:14:07.006,1.46484375,-306.640625,-240.72265625,-41.015625
1781532846.184186,2026-06-15T21:14:07.006,-21.484375,-403.3203125,-308.10546875,-140.625
1781532846.188075,2026-06-15T21:14:07.006,-12.6953125,-689.453125,-359.86328125,-80.56640625
1781532846.191964,2026-06-15T21:14:07.006,32.71484375,-541.9921875,-270.5078125,97.65625
1781532846.195852,2026-06-15T21:14:07.006,50.78125,-462.40234375,-300.78125,150.390625
1781532846.199741,2026-06-15T21:14:07.006,18.5546875,-750.9765625,-344.7265625,-9.27734375
1781532846.203630,2026-06-15T21:14:07.006,-15.13671875,-969.23828125,-572.265625,-123.53515625
1781532846.207519,2026-06-15T21:14:07.006,-18.5546875,-859.375,-524.90234375,-89.84375
1781532846.211407,2026-06-15T21:14:07.006,8.7890625,-317.3828125,-184.5703125,62.01171875
1781532846.215296,2026-06-15T21:14:07.006,33.69140625,-255.37109375,-253.41796875,137.6953125
1781532846.219185,2026-06-15T21:14:07.006,25.390625,-526.3671875,-344.23828125,4.8828125
1781532846.223261,2026-06-15T21:14:07.006,-2.44140625,-503.90625,-310.05859375,-133.30078125
1781532846.227150,2026-06-15T21:14:07.006,-16.6015625,-406.25,-283.69140625,-134.27734375
1781532846.231039,2026-06-15T21:14:07.006,15.13671875,-441.89453125,-306.640625,47.8515625
1781532846.234927,2026-06-15T21:14:07.006,67.87109375,-484.86328125,-286.1328125,176.26953125
1781532846.238816,2026-06-15T21:14:07.006,58.10546875,-407.71484375,-290.0390625,49.8046875
1781532846.242705,2026-06-15T21:14:07.006,17.578125,-674.8046875,-397.94921875,-118.1640625
1781532846.246594,2026-06-15T21:14:07.006,4.8828125,-948.73046875,-496.58203125,-130.37109375
1781532846.250483,2026-06-15T21:14:07.006,44.43359375,-929.19921875,-487.3046875,67.87109375
1781532846.254372,2026-06-15T21:14:07.006,64.453125,-571.77734375,-270.99609375,186.5234375
1781532846.258260,2026-06-15T21:14:07.006,-0.48828125,-506.34765625,-328.125,30.2734375
1781532846.262149,2026-06-15T21:14:07.006,-41.9921875,-817.3828125,-427.734375,-133.30078125
1781532846.266038,2026-06-15T21:14:07.006,-39.0625,-762.20703125,-383.30078125,-166.9921875
1781532846.270097,2026-06-15T21:14:07.006,-20.5078125,-412.59765625,-264.16015625,-20.01953125
1781532846.273986,2026-06-15T21:14:07.006,-16.6015625,-226.5625,-223.14453125,109.375
1781532846.277875,2026-06-15T21:14:07.006,-48.828125,-491.69921875,-300.29296875,6.8359375
1781532846.281764,2026-06-15T21:14:07.006,-76.171875,-622.55859375,-324.70703125,-152.34375
1781532846.285653,2026-06-15T21:14:07.006,-101.07421875,-493.1640625,-350.09765625,-195.3125
1781532846.289542,2026-06-15T21:14:07.006,-96.19140625,-603.02734375,-328.125,-72.75390625
1781532846.293431,2026-06-15T21:14:07.006,-52.734375,-868.65234375,-470.21484375,85.44921875
1781532846.297319,2026-06-15T21:14:07.006,-51.26953125,-884.27734375,-495.1171875,51.26953125
1781532846.301208,2026-06-15T21:14:07.006,-83.0078125,-480.46875,-266.11328125,-129.8828125
1781532846.305097,2026-06-15T21:14:07.006,-110.3515625,-504.8828125,-378.90625,-227.05078125
1781532846.308986,2026-06-15T21:14:07.006,-77.63671875,-653.3203125,-368.65234375,-91.30859375
1781532846.312875,2026-06-15T21:14:07.006,-51.7578125,-503.90625,-285.64453125,69.82421875
1781532846.316920,2026-06-15T21:14:07.006,-67.3828125,-445.80078125,-301.7578125,38.0859375
1781532846.320809,2026-06-15T21:14:07.006,-86.9140625,-526.85546875,-321.77734375,-110.3515625
1781532846.324697,2026-06-15T21:14:07.006,-84.9609375,-725.09765625,-393.5546875,-191.40625
1781532846.328587,2026-06-15T21:14:07.006,-48.828125,-567.3828125,-308.10546875,-83.49609375
1781532846.332475,2026-06-15T21:14:07.006,-26.3671875,-326.66015625,-259.27734375,80.078125
1781532846.336364,2026-06-15T21:14:07.006,-16.6015625,-562.01171875,-371.09375,102.05078125
1781532846.340253,2026-06-15T21:14:07.006,-38.0859375,-924.31640625,-471.6796875,-46.875
1781532846.344142,2026-06-15T21:14:07.006,-65.4296875,-694.3359375,-346.6796875,-169.921875
1781532846.348031,2026-06-15T21:14:07.006,-52.734375,-385.7421875,-276.85546875,-85.9375
1781532846.351920,2026-06-15T21:14:07.006,-6.34765625,-479.98046875,-322.265625,100.5859375
1781532846.355809,2026-06-15T21:14:07.006,15.13671875,-415.52734375,-298.828125,140.13671875
1781532846.359698,2026-06-15T21:14:07.006,-7.8125,-211.42578125,-207.51953125,-16.11328125
1781532846.363725,2026-06-15T21:14:07.006,-26.3671875,-287.109375,-280.2734375,-136.23046875
1781532846.367614,2026-06-15T21:14:07.006,-19.53125,-595.703125,-332.51953125,-74.21875
1781532846.371503,2026-06-15T21:14:07.006,16.6015625,-644.53125,-297.36328125,106.93359375
1781532846.375392,2026-06-15T21:14:07.006,30.2734375,-442.3828125,-275.390625,161.62109375
1781532846.379281,2026-06-15T21:14:07.006,16.6015625,-438.96484375,-297.36328125,16.6015625
1781532846.383170,2026-06-15T21:14:07.006,-5.859375,-762.20703125,-439.453125,-106.4453125
1781532846.387058,2026-06-15T21:14:07.006,-22.94921875,-969.23828125,-446.2890625,-97.16796875
1781532846.390948,2026-06-15T21:14:07.006,8.30078125,-780.76171875,-336.42578125,73.2421875
1781532846.394836,2026-06-15T21:14:07.006,33.203125,-590.8203125,-269.04296875,156.25
1781532846.398725,2026-06-15T21:14:07.006,13.671875,-810.05859375,-487.3046875,31.25
1781532846.402614,2026-06-15T21:14:07.006,-5.859375,-869.140625,-488.28125,-101.07421875
1781532846.406503,2026-06-15T21:14:07.006,-12.20703125,-483.88671875,-276.3671875,-108.3984375
1781532846.410643,2026-06-15T21:14:07.006,13.18359375,-452.1484375,-292.48046875,74.21875
1781532846.414532,2026-06-15T21:14:07.006,50.29296875,-490.234375,-265.625,193.84765625
1781532846.418422,2026-06-15T21:14:07.006,39.55078125,-350.09765625,-254.8828125,71.2890625
1781532846.422310,2026-06-15T21:14:07.006,-1.46484375,-326.66015625,-271.484375,-87.890625
1781532846.426199,2026-06-15T21:14:07.006,-23.4375,-601.07421875,-390.625,-109.86328125
1781532846.430089,2026-06-15T21:14:07.006,6.8359375,-822.265625,-411.62109375,46.875
1781532846.433977,2026-06-15T21:14:07.006,32.2265625,-675.29296875,-285.15625,158.203125
1781532846.437866,2026-06-15T21:14:07.006,13.671875,-451.66015625,-248.046875,57.6171875
1781532846.441756,2026-06-15T21:14:07.006,-7.32421875,-594.7265625,-408.69140625,-89.35546875
1781532846.445644,2026-06-15T21:14:07.006,-19.53125,-906.73828125,-541.9921875,-133.30078125
1781532846.449533,2026-06-15T21:14:07.006,7.32421875,-576.171875,-291.50390625,-1.46484375
1781532846.453423,2026-06-15T21:14:07.006,31.25,-182.6171875,-179.19921875,139.6484375
1781532846.457544,2026-06-15T21:14:07.006,6.34765625,-520.5078125,-345.21484375,66.89453125
1781532846.461433,2026-06-15T21:14:07.006,-17.08984375,-773.4375,-394.04296875,-88.8671875
1781532846.465322,2026-06-15T21:14:07.006,-29.296875,-449.21875,-278.3203125,-145.5078125
1781532846.469211,2026-06-15T21:14:07.006,-7.32421875,-359.375,-273.92578125,-7.8125
1781532846.473100,2026-06-15T21:14:07.006,30.76171875,-503.41796875,-299.8046875,153.80859375
1781532846.476989,2026-06-15T21:14:07.006,39.0625,-691.40625,-345.703125,114.74609375
1781532846.480878,2026-06-15T21:14:07.006,7.32421875,-749.51171875,-352.5390625,-49.31640625
1781532846.484767,2026-06-15T21:14:07.006,-18.5546875,-860.3515625,-392.578125,-137.20703125
1781532846.488657,2026-06-15T21:14:07.006,18.5546875,-1000.0,-539.0625,-5.37109375
1781532846.492546,2026-06-15T21:14:07.007,45.8984375,-785.64453125,-420.41015625,152.83203125
1781532846.496435,2026-06-15T21:14:07.007,5.37109375,-212.890625,-161.62109375,90.33203125
1781532846.500324,2026-06-15T21:14:07.007,-20.99609375,-297.36328125,-286.62109375,-71.2890625
1781532846.504432,2026-06-15T21:14:07.007,-34.66796875,-671.38671875,-390.625,-160.64453125
1781532846.508321,2026-06-15T21:14:07.007,-20.01953125,-569.82421875,-295.8984375,-76.66015625
1781532846.512210,2026-06-15T21:14:07.007,23.92578125,-219.23828125,-191.89453125,102.05078125
1781532846.516099,2026-06-15T21:14:07.007,27.83203125,-289.0625,-248.53515625,118.1640625
1781532846.519988,2026-06-15T21:14:07.007,-4.39453125,-569.3359375,-349.609375,-42.48046875
1781532846.523877,2026-06-15T21:14:07.007,-21.97265625,-774.90234375,-414.0625,-137.20703125
1781532846.527766,2026-06-15T21:14:07.007,-5.859375,-785.15625,-325.68359375,-79.1015625
1781532846.531656,2026-06-15T21:14:07.007,14.6484375,-599.12109375,-324.70703125,74.70703125
1781532846.535545,2026-06-15T21:14:07.007,11.71875,-816.89453125,-433.59375,132.8125
1781532846.539434,2026-06-15T21:14:07.007,-13.18359375,-567.3828125,-252.44140625,-20.5078125
1781532846.543323,2026-06-15T21:14:07.007,-34.66796875,-339.35546875,-287.59765625,-155.2734375
1781532846.547212,2026-06-15T21:14:07.007,-32.71484375,-732.421875,-399.4140625,-108.3984375
1781532846.551302,2026-06-15T21:14:07.007,7.8125,-712.40234375,-311.5234375,77.1484375
1781532846.555191,2026-06-15T21:14:07.007,21.484375,-223.6328125,-181.15234375,142.08984375
1781532846.559080,2026-06-15T21:14:07.007,-1.953125,-230.95703125,-254.39453125,-2.44140625
1781532846.562969,2026-06-15T21:14:07.007,-16.11328125,-637.20703125,-361.81640625,-133.7890625
1781532846.566859,2026-06-15T21:14:07.007,-19.53125,-750.48828125,-363.28125,-106.4453125
1781532846.570748,2026-06-15T21:14:07.007,6.8359375,-637.20703125,-339.35546875,81.54296875
1781532846.574637,2026-06-15T21:14:07.007,30.2734375,-636.71875,-291.9921875,163.0859375
1781532846.578526,2026-06-15T21:14:07.007,14.6484375,-836.9140625,-492.67578125,39.55078125
1781532846.582415,2026-06-15T21:14:07.007,-20.01953125,-898.4375,-527.34375,-97.16796875
1781532846.586304,2026-06-15T21:14:07.007,-27.83203125,-512.20703125,-284.66796875,-126.46484375
1781532846.590194,2026-06-15T21:14:07.007,1.46484375,-367.1875,-271.97265625,32.71484375
1781532846.594083,2026-06-15T21:14:07.007,13.18359375,-430.17578125,-259.27734375,150.390625
1781532846.598155,2026-06-15T21:14:07.007,0.0,-266.6015625,-191.89453125,41.015625
1781532846.602045,2026-06-15T21:14:07.007,-23.92578125,-204.58984375,-241.69921875,-107.91015625
1781532846.605934,2026-06-15T21:14:07.007,-45.8984375,-557.12890625,-369.62890625,-140.625
1781532846.609823,2026-06-15T21:14:07.007,-12.6953125,-712.40234375,-343.75,9.27734375
1781532846.613712,2026-06-15T21:14:07.007,23.92578125,-390.13671875,-249.51171875,134.27734375
1781532846.617602,2026-06-15T21:14:07.007,11.23046875,-516.11328125,-321.2890625,47.8515625
1781532846.621491,2026-06-15T21:14:07.007,-12.6953125,-888.18359375,-472.65625,-98.6328125
1781532846.625380,2026-06-15T21:14:07.007,-26.3671875,-974.609375,-541.9921875,-151.3671875
1781532846.629269,2026-06-15T21:14:07.007,-3.41796875,-611.328125,-290.0390625,-22.94921875
1781532846.633158,2026-06-15T21:14:07.007,19.53125,-156.25,-166.9921875,125.0
1781532846.637048,2026-06-15T21:14:07.007,1.46484375,-392.08984375,-297.8515625,63.4765625
1781532846.640937,2026-06-15T21:14:07.007,-13.18359375,-665.0390625,-375.0,-92.28515625
1781532846.644998,2026-06-15T21:14:07.007,-24.4140625,-542.96875,-320.3125,-164.55078125
1781532846.648887,2026-06-15T21:14:07.007,-12.20703125,-436.5234375,-294.43359375,-47.36328125
1781532846.652777,2026-06-15T21:14:07.007,12.20703125,-508.30078125,-279.296875,121.09375
1781532846.656666,2026-06-15T21:14:07.007,4.39453125,-420.41015625,-227.05078125,86.42578125
1781532846.660555,2026-06-15T21:14:07.007,-14.16015625,-397.4609375,-327.1484375,-75.1953125
1781532846.664444,2026-06-15T21:14:07.007,-41.015625,-843.26171875,-434.5703125,-168.45703125
1781532846.668334,2026-06-15T21:14:07.007,-30.76171875,-997.55859375,-504.39453125,-62.98828125
1781532846.672223,2026-06-15T21:14:07.007,11.71875,-916.50390625,-479.00390625,120.60546875
1781532846.676112,2026-06-15T21:14:07.007,21.484375,-515.625,-232.91015625,113.28125
1781532846.680001,2026-06-15T21:14:07.007,0.48828125,-348.6328125,-275.390625,-51.7578125
1781532846.683891,2026-06-15T21:14:07.007,-25.87890625,-667.48046875,-393.5546875,-154.296875
1781532846.687780,2026-06-15T21:14:07.007,-27.34375,-571.77734375,-290.0390625,-72.75390625
1781532846.691823,2026-06-15T21:14:07.007,3.90625,-233.3984375,-195.3125,100.09765625
1781532846.695713,2026-06-15T21:14:07.007,20.01953125,-271.484375,-264.6484375,133.30078125
1781532846.699602,2026-06-15T21:14:07.007,3.90625,-566.40625,-367.67578125,-20.5078125
1781532846.703491,2026-06-15T21:14:07.007,-26.85546875,-565.4296875,-338.37890625,-149.90234375
1781532846.707381,2026-06-15T21:14:07.007,-34.1796875,-461.42578125,-296.38671875,-106.4453125
1781532846.711270,2026-06-15T21:14:07.007,6.8359375,-705.078125,-387.20703125,72.75390625
1781532846.715159,2026-06-15T21:14:07.007,33.69140625,-920.41015625,-423.33984375,152.83203125
1781532846.719048,2026-06-15T21:14:07.007,12.20703125,-561.03515625,-278.3203125,15.13671875
1781532846.722938,2026-06-15T21:14:07.007,-17.08984375,-539.55078125,-342.28515625,-133.7890625
1781532846.726827,2026-06-15T21:14:07.007,-23.92578125,-911.62109375,-473.6328125,-121.58203125
1781532846.730716,2026-06-15T21:14:07.007,3.41796875,-649.4140625,-343.26171875,38.0859375
1781532846.734606,2026-06-15T21:14:07.007,25.390625,-188.96484375,-162.109375,115.234375
1781532846.738630,2026-06-15T21:14:07.007,14.6484375,-249.0234375,-253.90625,-7.8125
1781532846.742520,2026-06-15T21:14:07.007,-26.85546875,-676.26953125,-363.76953125,-146.97265625
1781532846.746409,2026-06-15T21:14:07.007,-43.9453125,-733.88671875,-323.73046875,-147.4609375
1781532846.750298,2026-06-15T21:14:07.007,1.46484375,-333.984375,-208.49609375,33.203125
1781532846.754188,2026-06-15T21:14:07.007,29.296875,-219.23828125,-224.12109375,137.6953125
1781532846.758077,2026-06-15T21:14:07.007,11.71875,-672.36328125,-439.453125,31.25
1781532846.761966,2026-06-15T21:14:07.007,-19.04296875,-980.46875,-445.3125,-108.3984375
1781532846.765856,2026-06-15T21:14:07.007,-40.52734375,-831.54296875,-340.8203125,-141.11328125
1781532846.769745,2026-06-15T21:14:07.007,-20.5078125,-536.62109375,-312.5,12.20703125
1781532846.773634,2026-06-15T21:14:07.007,10.7421875,-618.65234375,-328.61328125,142.578125
1781532846.777524,2026-06-15T21:14:07.007,8.30078125,-589.35546875,-278.80859375,47.8515625
1781532846.781413,2026-06-15T21:14:07.007,-21.97265625,-503.41796875,-332.51953125,-113.28125
1781532846.785548,2026-06-15T21:14:07.007,-44.921875,-851.5625,-454.58984375,-161.62109375
1781532846.789438,2026-06-15T21:14:07.007,-16.11328125,-754.8828125,-354.4921875,-17.578125
1781532846.793327,2026-06-15T21:14:07.007,20.5078125,-313.4765625,-186.5234375,129.39453125
1781532846.797216,2026-06-15T21:14:07.007,12.6953125,-204.1015625,-218.26171875,66.89453125
1781532846.801106,2026-06-15T21:14:07.007,-9.765625,-524.4140625,-371.58203125,-79.58984375
1781532846.804995,2026-06-15T21:14:07.007,-30.76171875,-921.38671875,-476.07421875,-139.6484375
1781532846.808884,2026-06-15T21:14:07.007,-18.06640625,-839.35546875,-340.8203125,-18.06640625
1781532846.812774,2026-06-15T21:14:07.007,15.13671875,-319.3359375,-165.0390625,129.8828125
1781532846.816663,2026-06-15T21:14:07.007,17.08984375,-434.5703125,-350.09765625,78.61328125
1781532846.820553,2026-06-15T21:14:07.007,-3.90625,-845.21484375,-489.74609375,-72.75390625
1781532846.824442,2026-06-15T21:14:07.007,-23.4375,-559.08203125,-303.22265625,-156.73828125
1781532846.828331,2026-06-15T21:14:07.007,-9.765625,-336.42578125,-265.13671875,-54.6875
1781532846.832448,2026-06-15T21:14:07.007,12.20703125,-453.61328125,-242.67578125,124.51171875
1781532846.836338,2026-06-15T21:14:07.007,13.671875,-404.78515625,-237.3046875,114.74609375
1781532846.840227,2026-06-15T21:14:07.007,5.859375,-349.609375,-283.69140625,-46.875
1781532846.844117,2026-06-15T21:14:07.007,-18.5546875,-694.82421875,-382.32421875,-149.4140625
1781532846.848006,2026-06-15T21:14:07.007,-23.4375,-829.58984375,-393.5546875,-62.98828125
1781532846.851896,2026-06-15T21:14:07.007,19.04296875,-696.77734375,-322.265625,116.69921875
1781532846.855785,2026-06-15T21:14:07.007,20.99609375,-588.8671875,-305.6640625,134.27734375
1781532846.859674,2026-06-15T21:14:07.007,-13.18359375,-604.98046875,-307.12890625,-33.203125
1781532846.863564,2026-06-15T21:14:07.007,-30.76171875,-853.515625,-511.23046875,-138.18359375
1781532846.867453,2026-06-15T21:14:07.007,-26.85546875,-822.265625,-484.86328125,-76.171875
1781532846.871343,2026-06-15T21:14:07.007,2.9296875,-219.23828125,-156.25,83.0078125
1781532846.875232,2026-06-15T21:14:07.007,12.6953125,-197.75390625,-235.3515625,127.44140625
1781532846.879333,2026-06-15T21:14:07.007,-17.578125,-570.80078125,-354.00390625,-26.85546875
1781532846.883223,2026-06-15T21:14:07.007,-42.96875,-518.5546875,-310.546875,-145.5078125
1781532846.887113,2026-06-15T21:14:07.007,-40.0390625,-401.3671875,-292.48046875,-115.234375
1781532846.891002,2026-06-15T21:14:07.007,-8.30078125,-447.75390625,-286.1328125,72.75390625
1781532846.894892,2026-06-15T21:14:07.007,4.8828125,-529.296875,-328.61328125,142.578125
1781532846.898781,2026-06-15T21:14:07.007,-9.765625,-646.97265625,-388.671875,-16.11328125
1781532846.902670,2026-06-15T21:14:07.007,-32.71484375,-803.7109375,-389.6484375,-137.20703125
1781532846.906560,2026-06-15T21:14:07.007,-44.921875,-954.1015625,-489.2578125,-123.53515625
1781532846.910450,2026-06-15T21:14:07.007,4.39453125,-932.12890625,-475.09765625,67.3828125
1781532846.914339,2026-06-15T21:14:07.007,43.9453125,-497.55859375,-217.7734375,155.2734375
1781532846.918228,2026-06-15T21:14:07.007,-0.9765625,-241.2109375,-241.69921875,11.23046875
1781532846.922118,2026-06-15T21:14:07.007,-56.15234375,-595.21484375,-373.53515625,-127.44140625
1781532846.926206,2026-06-15T21:14:07.912,-57.6171875,-733.3984375,-359.375,-136.23046875
1781532846.930095,2026-06-15T21:14:07.912,-19.53125,-321.77734375,-223.14453125,24.90234375
1781532846.933985,2026-06-15T21:14:07.912,9.765625,-160.15625,-211.9140625,141.6015625
1781532846.937875,2026-06-15T21:14:07.912,-9.27734375,-492.1875,-305.17578125,26.3671875
1781532846.941764,2026-06-15T21:14:07.912,-35.15625,-585.44921875,-316.40625,-134.27734375
1781532846.945654,2026-06-15T21:14:07.912,-42.96875,-670.41015625,-401.3671875,-160.64453125
1781532846.949543,2026-06-15T21:14:07.912,-17.578125,-786.1328125,-357.421875,-5.859375
1781532846.953433,2026-06-15T21:14:07.912,12.20703125,-813.96484375,-431.15234375,137.20703125
1781532846.957322,2026-06-15T21:14:07.912,-9.27734375,-944.3359375,-528.80859375,52.24609375
1781532846.961212,2026-06-15T21:14:07.912,-48.33984375,-607.421875,-306.15234375,-124.51171875
1781532846.965101,2026-06-15T21:14:07.912,-45.8984375,-512.20703125,-343.75,-174.8046875
1781532846.968991,2026-06-15T21:14:07.912,-9.27734375,-648.92578125,-356.93359375,-24.4140625
1781532846.973061,2026-06-15T21:14:07.912,15.13671875,-425.29296875,-234.375,120.1171875
1781532846.976950,2026-06-15T21:14:07.912,6.8359375,-255.37109375,-249.51171875,55.6640625
1781532846.980840,2026-06-15T21:14:07.912,-14.6484375,-460.9375,-354.00390625,-98.14453125
1781532846.984729,2026-06-15T21:14:07.912,-29.296875,-736.328125,-398.92578125,-166.50390625
1781532846.988619,2026-06-15T21:14:07.912,-13.18359375,-553.22265625,-321.77734375,-38.0859375
1781532846.992508,2026-06-15T21:14:07.912,5.859375,-551.26953125,-336.9140625,123.53515625
1781532846.996398,2026-06-15T21:14:07.912,-11.23046875,-721.6796875,-396.484375,80.56640625
1781532847.000288,2026-06-15T21:14:07.912,-30.2734375,-872.0703125,-464.35546875,-71.77734375
1781532847.004177,2026-06-15T21:14:07.912,-31.25,-658.203125,-320.3125,-150.87890625
1781532847.008067,2026-06-15T21:14:07.912,-20.5078125,-282.71484375,-219.7265625,-64.453125
1781532847.011956,2026-06-15T21:14:07.912,-2.9296875,-407.2265625,-287.59765625,91.30859375
1781532847.015846,2026-06-15T21:14:07.912,0.48828125,-711.42578125,-396.484375,95.703125
1781532847.019899,2026-06-15T21:14:07.912,-7.8125,-581.54296875,-324.70703125,-75.68359375
1781532847.023788,2026-06-15T21:14:07.912,-25.87890625,-410.64453125,-305.17578125,-188.4765625
1781532847.027678,2026-06-15T21:14:07.912,-33.69140625,-597.16796875,-319.82421875,-97.65625
1781532847.031568,2026-06-15T21:14:07.912,-4.39453125,-541.9921875,-241.2109375,76.66015625
1781532847.035457,2026-06-15T21:14:07.912,10.7421875,-301.26953125,-257.8125,110.83984375
1781532847.039347,2026-06-15T21:14:07.912,-17.578125,-566.40625,-331.0546875,-45.41015625
1781532847.043236,2026-06-15T21:14:07.912,-40.52734375,-957.51953125,-561.5234375,-146.484375
1781532847.047126,2026-06-15T21:14:07.912,-39.0625,-859.86328125,-541.9921875,-87.890625
1781532847.051016,2026-06-15T21:14:07.912,-3.41796875,-368.65234375,-209.9609375,54.6875
1781532847.054905,2026-06-15T21:14:07.912,13.18359375,-282.2265625,-262.20703125,110.3515625
1781532847.058795,2026-06-15T21:14:07.912,-16.11328125,-510.7421875,-343.26171875,-27.34375
1781532847.062685,2026-06-15T21:14:07.912,-48.828125,-560.546875,-333.49609375,-157.71484375
1781532847.066726,2026-06-15T21:14:07.912,-51.7578125,-423.33984375,-291.015625,-125.0
1781532847.070616,2026-06-15T21:14:07.912,-10.7421875,-390.625,-270.99609375,57.12890625
1781532847.074505,2026-06-15T21:14:07.912,9.27734375,-747.0703125,-354.4921875,135.25390625
1781532847.078395,2026-06-15T21:14:07.912,-26.85546875,-652.34375,-312.01171875,-13.18359375
1781532847.082284,2026-06-15T21:14:07.912,-57.6171875,-432.12890625,-324.70703125,-144.53125
1781532847.086174,2026-06-15T21:14:07.912,-66.40625,-799.8046875,-477.05078125,-132.8125
1781532847.090064,2026-06-15T21:14:07.912,-37.109375,-966.30859375,-471.19140625,48.828125
1781532847.093953,2026-06-15T21:14:07.912,-18.06640625,-554.6875,-260.7421875,127.9296875
1781532847.097843,2026-06-15T21:14:07.912,-45.41015625,-223.6328125,-230.46875,-13.671875
1781532847.101733,2026-06-15T21:14:07.912,-57.6171875,-592.28515625,-415.0390625,-135.7421875
1781532847.105622,2026-06-15T21:14:07.912,-59.5703125,-775.390625,-424.8046875,-153.3203125
1781532847.109512,2026-06-15T21:14:07.912,-28.3203125,-411.62109375,-265.625,7.32421875
1781532847.113535,2026-06-15T21:14:07.912,-2.44140625,-226.07421875,-235.83984375,134.27734375
1781532847.117424,2026-06-15T21:14:07.912,-21.97265625,-437.01171875,-277.34375,31.73828125
1781532847.121314,2026-06-15T21:14:07.912,-34.1796875,-622.55859375,-338.8671875,-101.5625
1781532847.125204,2026-06-15T21:14:07.912,-42.48046875,-498.046875,-318.359375,-135.7421875
1781532847.129093,2026-06-15T21:14:07.912,-17.578125,-471.19140625,-314.453125,1.46484375
1781532847.132983,2026-06-15T21:14:07.912,14.6484375,-727.5390625,-380.37109375,144.53125
1781532847.136873,2026-06-15T21:14:07.912,2.44140625,-902.34375,-392.08984375,61.03515625
1781532847.140762,2026-06-15T21:14:07.912,-23.4375,-878.90625,-411.1328125,-112.3046875
1781532847.144652,2026-06-15T21:14:07.912,-43.9453125,-893.5546875,-417.96875,-166.50390625
1781532847.148542,2026-06-15T21:14:07.912,-32.2265625,-937.01171875,-459.47265625,-16.6015625
1781532847.152431,2026-06-15T21:14:07.912,-0.9765625,-583.49609375,-284.66796875,137.20703125
1781532847.156321,2026-06-15T21:14:07.912,13.671875,-134.27734375,-159.1796875,90.8203125
1781532847.160451,2026-06-15T21:14:07.912,-8.30078125,-391.6015625,-330.56640625,-66.40625
1781532847.164341,2026-06-15T21:14:07.912,-47.36328125,-700.1953125,-378.90625,-166.50390625
1781532847.168231,2026-06-15T21:14:07.912,-32.2265625,-489.74609375,-271.484375,-54.19921875
1781532847.172120,2026-06-15T21:14:07.912,14.6484375,-164.55078125,-174.31640625,139.16015625
1781532847.176010,2026-06-15T21:14:07.912,13.671875,-199.70703125,-227.05078125,112.79296875
1781532847.179900,2026-06-15T21:14:07.912,-17.08984375,-726.5625,-395.5078125,-65.4296875
1781532847.183790,2026-06-15T21:14:07.912,-37.109375,-736.328125,-332.03125,-163.0859375
1781532847.187679,2026-06-15T21:14:07.912,-26.3671875,-390.625,-245.1171875,-74.70703125
1781532847.191569,2026-06-15T21:14:07.912,7.32421875,-621.09375,-387.20703125,111.81640625
1781532847.195459,2026-06-15T21:14:07.912,17.578125,-806.15234375,-426.7578125,129.39453125
1781532847.199349,2026-06-15T21:14:07.912,-3.41796875,-464.84375,-256.8359375,-39.55078125
1781532847.203238,2026-06-15T21:14:07.912,-30.76171875,-384.27734375,-295.41015625,-150.87890625
1781532847.207352,2026-06-15T21:14:07.912,-20.01953125,-707.51953125,-364.2578125,-81.0546875
1781532847.211242,2026-06-15T21:14:07.912,19.04296875,-648.92578125,-304.6875,94.23828125
1781532847.215132,2026-06-15T21:14:07.912,28.3203125,-275.87890625,-223.14453125,143.06640625
1781532847.219022,2026-06-15T21:14:07.912,13.671875,-347.65625,-291.9921875,-0.9765625
1781532847.222912,2026-06-15T21:14:07.912,-12.20703125,-725.09765625,-412.59765625,-132.8125
1781532847.226801,2026-06-15T21:14:07.912,-29.78515625,-1000.0,-441.89453125,-100.09765625
1781532847.230691,2026-06-15T21:14:07.912,12.6953125,-828.61328125,-360.3515625,79.58984375
1781532847.234581,2026-06-15T21:14:07.912,37.59765625,-631.34765625,-292.48046875,144.04296875
1781532847.238471,2026-06-15T21:14:07.912,8.7890625,-856.93359375,-511.23046875,6.34765625
1781532847.242361,2026-06-15T21:14:07.912,-13.671875,-864.74609375,-514.6484375,-129.39453125
1781532847.246250,2026-06-15T21:14:07.912,-25.87890625,-472.16796875,-266.6015625,-134.27734375
1781532847.250140,2026-06-15T21:14:07.912,4.39453125,-498.53515625,-308.59375,39.55078125
1781532847.254237,2026-06-15T21:14:07.912,29.296875,-568.84765625,-291.9921875,137.6953125
1781532847.258127,2026-06-15T21:14:07.912,18.06640625,-396.97265625,-248.53515625,12.20703125
1781532847.262017,2026-06-15T21:14:07.912,9.765625,-353.02734375,-285.64453125,-124.51171875
1781532847.265906,2026-06-15T21:14:07.912,-6.34765625,-592.28515625,-357.91015625,-134.27734375
1781532847.269796,2026-06-15T21:14:07.912,-3.90625,-678.22265625,-344.7265625,20.5078125
1781532847.273686,2026-06-15T21:14:07.912,13.18359375,-566.89453125,-305.17578125,127.9296875
1781532847.277576,2026-06-15T21:14:07.912,2.9296875,-571.77734375,-285.15625,26.85546875
1781532847.281466,2026-06-15T21:14:07.912,-36.1328125,-662.109375,-395.99609375,-132.32421875
1781532847.285356,2026-06-15T21:14:07.912,-39.0625,-977.5390625,-560.05859375,-147.4609375
1781532847.289245,2026-06-15T21:14:07.912,25.390625,-617.67578125,-284.1796875,41.015625
1781532847.293135,2026-06-15T21:14:07.912,46.875,-128.90625,-163.0859375,168.45703125
1781532847.297025,2026-06-15T21:14:07.912,-3.90625,-423.33984375,-307.12890625,55.17578125
1781532847.301108,2026-06-15T21:14:07.912,-29.296875,-637.6953125,-346.19140625,-105.46875
1781532847.304998,2026-06-15T21:14:07.912,-25.390625,-452.1484375,-299.31640625,-142.578125
1781532847.308888,2026-06-15T21:14:07.913,-2.9296875,-565.4296875,-333.49609375,-4.8828125
1781532847.312778,2026-06-15T21:14:07.913,20.5078125,-636.23046875,-286.62109375,137.6953125
1781532847.316668,2026-06-15T21:14:07.913,3.90625,-469.7265625,-269.04296875,68.84765625
1781532847.320558,2026-06-15T21:14:07.913,-26.85546875,-627.9296875,-384.765625,-92.28515625
1781532847.324448,2026-06-15T21:14:07.913,-44.921875,-833.49609375,-382.32421875,-149.4140625
1781532847.328338,2026-06-15T21:14:07.913,-24.4140625,-974.12109375,-497.0703125,-6.8359375
1781532847.332227,2026-06-15T21:14:07.913,15.625,-760.25390625,-418.9453125,169.43359375
1781532847.336117,2026-06-15T21:14:07.913,13.671875,-204.1015625,-172.36328125,114.2578125
1781532847.340007,2026-06-15T21:14:07.913,-19.04296875,-350.5859375,-311.03515625,-62.98828125
1781532847.343897,2026-06-15T21:14:07.913,-41.50390625,-726.07421875,-404.78515625,-154.296875
1781532847.347965,2026-06-15T21:14:07.913,-27.83203125,-553.22265625,-280.76171875,-53.22265625
1781532847.351855,2026-06-15T21:14:07.913,5.37109375,-166.015625,-166.9921875,111.328125
1781532847.355745,2026-06-15T21:14:07.913,14.6484375,-270.99609375,-256.34765625,109.86328125
1781532847.359635,2026-06-15T21:14:07.913,-4.39453125,-578.61328125,-331.54296875,-43.45703125
1781532847.363525,2026-06-15T21:14:07.913,-24.4140625,-588.8671875,-344.23828125,-151.3671875
1781532847.367414,2026-06-15T21:14:07.913,-17.578125,-694.3359375,-372.55859375,-74.70703125
1781532847.371305,2026-06-15T21:14:07.913,18.5546875,-789.0625,-375.0,102.05078125
1781532847.375194,2026-06-15T21:14:07.913,32.71484375,-855.46875,-404.78515625,131.8359375
1781532847.379084,2026-06-15T21:14:07.913,0.9765625,-600.5859375,-285.15625,-42.48046875
1781532847.382974,2026-06-15T21:14:07.913,-23.92578125,-444.3359375,-314.453125,-164.55078125
1781532847.386864,2026-06-15T21:14:07.913,-23.4375,-742.1875,-419.921875,-98.14453125
1781532847.390754,2026-06-15T21:14:07.913,-2.44140625,-635.7421875,-338.8671875,68.359375
1781532847.394806,2026-06-15T21:14:07.913,13.671875,-219.7265625,-187.98828125,117.67578125
1781532847.398695,2026-06-15T21:14:07.913,-9.27734375,-232.91015625,-244.62890625,-22.94921875
1781532847.402586,2026-06-15T21:14:07.913,-47.36328125,-666.9921875,-374.0234375,-147.94921875
1781532847.406476,2026-06-15T21:14:07.913,-47.36328125,-747.55859375,-350.5859375,-118.65234375
1781532847.410365,2026-06-15T21:14:07.913,6.8359375,-390.13671875,-281.25,49.31640625
1781532847.414255,2026-06-15T21:14:07.913,22.4609375,-496.58203125,-300.29296875,131.34765625
1781532847.418145,2026-06-15T21:14:07.913,-18.06640625,-862.3046875,-499.51171875,6.34765625
1781532847.422035,2026-06-15T21:14:07.913,-43.45703125,-902.34375,-546.875,-132.8125
1781532847.425925,2026-06-15T21:14:07.913,-42.96875,-720.21484375,-324.21875,-132.8125
1781532847.429815,2026-06-15T21:14:07.913,18.06640625,-548.828125,-293.9453125,60.05859375
1781532847.433705,2026-06-15T21:14:07.913,71.77734375,-518.06640625,-323.2421875,164.55078125
1781532847.437595,2026-06-15T21:14:07.913,41.015625,-530.76171875,-313.96484375,13.18359375
1781532847.441634,2026-06-15T21:14:07.913,10.7421875,-416.015625,-303.22265625,-133.7890625
1781532847.445524,2026-06-15T21:14:07.913,-22.4609375,-600.09765625,-374.0234375,-151.85546875
1781532847.449414,2026-06-15T21:14:07.913,-42.48046875,-627.9296875,-299.31640625,5.859375
1781532847.453304,2026-06-15T21:14:07.913,-31.25,-263.18359375,-144.53125,124.0234375
1781532847.457194,2026-06-15T21:14:07.913,-33.203125,-174.31640625,-196.2890625,3.41796875
1781532847.461084,2026-06-15T21:14:07.913,-54.6875,-676.7578125,-417.96875,-142.08984375
